**************INPUT DATA SUMMARY**************
%%%%%%%%%%%%%%%%%%%%%%%%%%%%%%%%%%%%%%%%%%%%%%%%%%%%%%%%%%%%%%%%%%%%%%%%%%%%%%

                                      Jason A. Sonk & John R. Barker
                ktools-  2023         University of Michigan
                                      Ann Arbor, MI 48109-2143
                  Mar 2023            Contact:
                                        jrbarker@umich.edu
                                        (734) 763 6239

              http://aoss.engin.umich.edu/multiwell/

%%%%%%%%%%%%%%%%%%%%%%%%%%%%%%%%%%%%%%%%%%%%%%%%%%%%%%%%%%%%%%%%%%%%%%%%%%%%%%

        Suggested Literature Citation:

        a) J.R. Barker, T.L. Nguyen, J.F. Stanton, C. Aieta, M. Ceotto,
       F. Gabas, T.J.D. Kumar, C.G.L.Li, L.L.Lohr, A. Maranzana,
       N.F. Ortiz, J.M. Preses, J.M. Simmie, J.A. Sonk, and P.J. Stimac; 
       MultiWell- 2023   Software Suite; University of Michigan, 
       Ann Arbor, Michigan, USA, Mar 2023; 
       http://clasp-research.engin.umich.edu/multiwell/.

        b) J.R. Barker, Int. J. Chem. Kinetics, 33, 232-45 (2001)



%%%%%%%%%%%%%%%%%%%%%%%%%%%%%%%%%%%%%%%%%%%%%%%%%%%%%%%%%%%%%%%%%%%%%%%%%%%%%%

%%%%%%%%%%%%%%%%%%%%%%%%%%%%%%%%%%%%%%%%%%%%%%%%%%%%%%%%%%%%%%%%%%%%%%%%%%%%%%

                                      Jason A. Sonk & John R. Barker
                ktools-  2023         University of Michigan
                                      Ann Arbor, MI 48109-2143
                  
**************INPUT DATA SUMMARY**************
 ktools-uts.dens
 J-summed Density and Sum of states.
       10.0        301    40000.0        902      466.5
       No.    E(cm-1)    Density    Sum   [Energy at TOP of energy grains]
         1        0.0  5.07500E+02  5.07500E+03
         2       10.0  2.02910E+03  2.53660E+04
         3       20.0  6.93700E+02  3.23030E+04
         4       30.0  2.25240E+03  5.48270E+04
         5       40.0  4.36990E+03  9.85260E+04
         6       50.0  7.88350E+03  1.77361E+05
         7       60.0  1.54041E+04  3.31402E+05
         8       70.0  7.38680E+03  4.05270E+05
         9       80.0  2.50158E+04  6.55428E+05
        10       90.0  2.92683E+04  9.48111E+05
        11      100.0  3.91363E+04  1.33947E+06
        12      110.0  4.39774E+04  1.77925E+06
        13      120.0  4.34373E+04  2.21362E+06
        14      130.0  4.27673E+04  2.64129E+06
        15      140.0  5.81882E+04  3.22318E+06
        16      150.0  7.00507E+04  3.92368E+06
        17      160.0  9.08559E+04  4.83224E+06
        18      170.0  6.90200E+04  5.52244E+06
        19      180.0  1.08824E+05  6.61068E+06
        20      190.0  9.55511E+04  7.56619E+06
        21      200.0  8.99296E+04  8.46549E+06
        22      210.0  1.05862E+05  9.52411E+06
        23      220.0  1.27909E+05  1.08032E+07
        24      230.0  1.34771E+05  1.21509E+07
        25      240.0  1.16568E+05  1.33166E+07
        26      250.0  1.19326E+05  1.45098E+07
        27      260.0  1.25624E+05  1.57661E+07
        28      270.0  1.33442E+05  1.71005E+07
        29      280.0  1.40886E+05  1.85094E+07
        30      290.0  1.46860E+05  1.99780E+07
        31      300.0  1.53649E+05  2.15145E+07
        32      310.0  1.60649E+05  2.31209E+07
        33      320.0  1.67478E+05  2.47957E+07
        34      330.0  1.76531E+05  2.65610E+07
        35      340.0  1.85336E+05  2.84144E+07
        36      350.0  1.93393E+05  3.03483E+07
        37      360.0  2.01608E+05  3.23644E+07
        38      370.0  2.12036E+05  3.44848E+07
        39      380.0  2.20814E+05  3.66929E+07
        40      390.0  2.32668E+05  3.90196E+07
        41      400.0  2.42840E+05  4.14480E+07
        42      410.0  2.51875E+05  4.39667E+07
        43      420.0  2.62810E+05  4.65948E+07
        44      430.0  2.70619E+05  4.93010E+07
        45      440.0  2.81662E+05  5.21176E+07
        46      450.0  2.91514E+05  5.50328E+07
        47      460.0  3.02293E+05  5.80557E+07
        48      470.0  3.13550E+05  6.11912E+07
        49      480.0  3.25588E+05  6.44471E+07
        50      490.0  3.37230E+05  6.78194E+07
        51      500.0  3.47157E+05  7.12909E+07
        52      510.0  3.61478E+05  7.49057E+07
        53      520.0  3.74001E+05  7.86457E+07
        54      530.0  3.85716E+05  8.25029E+07
        55      540.0  3.98065E+05  8.64835E+07
        56      550.0  4.11029E+05  9.05938E+07
        57      560.0  4.22431E+05  9.48181E+07
        58      570.0  4.38242E+05  9.92006E+07
        59      580.0  4.53343E+05  1.03734E+08
        60      590.0  4.62771E+05  1.08362E+08
        61      600.0  4.76499E+05  1.13127E+08
        62      610.0  4.86530E+05  1.17992E+08
        63      620.0  4.99604E+05  1.22988E+08
        64      630.0  5.14765E+05  1.28136E+08
        65      640.0  5.31408E+05  1.33450E+08
        66      650.0  5.47558E+05  1.38925E+08
        67      660.0  5.61181E+05  1.44537E+08
        68      670.0  5.78281E+05  1.50320E+08
        69      680.0  5.90586E+05  1.56226E+08
        70      690.0  6.06492E+05  1.62291E+08
        71      700.0  6.19337E+05  1.68484E+08
        72      710.0  6.36904E+05  1.74853E+08
        73      720.0  6.54776E+05  1.81401E+08
        74      730.0  6.71364E+05  1.88115E+08
        75      740.0  6.88536E+05  1.95000E+08
        76      750.0  7.02502E+05  2.02025E+08
        77      760.0  7.21203E+05  2.09237E+08
        78      770.0  7.36094E+05  2.16598E+08
        79      780.0  7.53506E+05  2.24133E+08
        80      790.0  7.73146E+05  2.31864E+08
        81      800.0  7.89093E+05  2.39755E+08
        82      810.0  8.08905E+05  2.47844E+08
        83      820.0  8.25752E+05  2.56102E+08
        84      830.0  8.48960E+05  2.64592E+08
        85      840.0  8.66307E+05  2.73255E+08
        86      850.0  8.92033E+05  2.82175E+08
        87      860.0  9.09454E+05  2.91269E+08
        88      870.0  9.31849E+05  3.00588E+08
        89      880.0  9.53079E+05  3.10119E+08
        90      890.0  9.74574E+05  3.19864E+08
        91      900.0  9.97444E+05  3.29839E+08
        92      910.0  1.01614E+06  3.40000E+08
        93      920.0  1.04537E+06  3.50454E+08
        94      930.0  1.06759E+06  3.61130E+08
        95      940.0  1.09040E+06  3.72034E+08
        96      950.0  1.11393E+06  3.83173E+08
        97      960.0  1.14596E+06  3.94633E+08
        98      970.0  1.17078E+06  4.06341E+08
        99      980.0  1.19681E+06  4.18309E+08
       100      990.0  1.22498E+06  4.30559E+08
       101     1000.0  1.25291E+06  4.43088E+08
       102     1010.0  1.28086E+06  4.55896E+08
       103     1020.0  1.30879E+06  4.68984E+08
       104     1030.0  1.34292E+06  4.82413E+08
       105     1040.0  1.37221E+06  4.96135E+08
       106     1050.0  1.40170E+06  5.10152E+08
       107     1060.0  1.43423E+06  5.24495E+08
       108     1070.0  1.46755E+06  5.39170E+08
       109     1080.0  1.50330E+06  5.54203E+08
       110     1090.0  1.53129E+06  5.69516E+08
       111     1100.0  1.57109E+06  5.85227E+08
       112     1110.0  1.60690E+06  6.01296E+08
       113     1120.0  1.64560E+06  6.17752E+08
       114     1130.0  1.67813E+06  6.34533E+08
       115     1140.0  1.71411E+06  6.51675E+08
       116     1150.0  1.75474E+06  6.69222E+08
       117     1160.0  1.79069E+06  6.87129E+08
       118     1170.0  1.82583E+06  7.05387E+08
       119     1180.0  1.86212E+06  7.24008E+08
       120     1190.0  1.90536E+06  7.43062E+08
       121     1200.0  1.94221E+06  7.62484E+08
       122     1210.0  1.97891E+06  7.82273E+08
       123     1220.0  2.02031E+06  8.02476E+08
       124     1230.0  2.06041E+06  8.23080E+08
       125     1240.0  2.10309E+06  8.44111E+08
       126     1250.0  2.13828E+06  8.65494E+08
       127     1260.0  2.18307E+06  8.87325E+08
       128     1270.0  2.23019E+06  9.09627E+08
       129     1280.0  2.27029E+06  9.32330E+08
       130     1290.0  2.31546E+06  9.55484E+08
       131     1300.0  2.36267E+06  9.79111E+08
       132     1310.0  2.40572E+06  1.00317E+09
       133     1320.0  2.45101E+06  1.02768E+09
       134     1330.0  2.48642E+06  1.05254E+09
       135     1340.0  2.53297E+06  1.07787E+09
       136     1350.0  2.57451E+06  1.10362E+09
       137     1360.0  2.61932E+06  1.12981E+09
       138     1370.0  2.66505E+06  1.15646E+09
       139     1380.0  2.71212E+06  1.18358E+09
       140     1390.0  2.76543E+06  1.21124E+09
       141     1400.0  2.81803E+06  1.23942E+09
       142     1410.0  2.87188E+06  1.26814E+09
       143     1420.0  2.92239E+06  1.29736E+09
       144     1430.0  2.97259E+06  1.32709E+09
       145     1440.0  3.02564E+06  1.35734E+09
       146     1450.0  3.08019E+06  1.38814E+09
       147     1460.0  3.13722E+06  1.41952E+09
       148     1470.0  3.19025E+06  1.45142E+09
       149     1480.0  3.23902E+06  1.48381E+09
       150     1490.0  3.29434E+06  1.51675E+09
       151     1500.0  3.35251E+06  1.55028E+09
       152     1510.0  3.40256E+06  1.58430E+09
       153     1520.0  3.45264E+06  1.61883E+09
       154     1530.0  3.52372E+06  1.65407E+09
       155     1540.0  3.57147E+06  1.68978E+09
       156     1550.0  3.63364E+06  1.72612E+09
       157     1560.0  3.69092E+06  1.76303E+09
       158     1570.0  3.73760E+06  1.80040E+09
       159     1580.0  3.79435E+06  1.83835E+09
       160     1590.0  3.86535E+06  1.87700E+09
       161     1600.0  3.91833E+06  1.91618E+09
       162     1610.0  3.98166E+06  1.95600E+09
       163     1620.0  4.04075E+06  1.99641E+09
       164     1630.0  4.11393E+06  2.03755E+09
       165     1640.0  4.18151E+06  2.07936E+09
       166     1650.0  4.23792E+06  2.12174E+09
       167     1660.0  4.31058E+06  2.16485E+09
       168     1670.0  4.37153E+06  2.20856E+09
       169     1680.0  4.41984E+06  2.25276E+09
       170     1690.0  4.49829E+06  2.29774E+09
       171     1700.0  4.56698E+06  2.34341E+09
       172     1710.0  4.61646E+06  2.38958E+09
       173     1720.0  4.69743E+06  2.43655E+09
       174     1730.0  4.76602E+06  2.48421E+09
       175     1740.0  4.83763E+06  2.53259E+09
       176     1750.0  4.90781E+06  2.58167E+09
       177     1760.0  4.96481E+06  2.63131E+09
       178     1770.0  5.03077E+06  2.68162E+09
       179     1780.0  5.10778E+06  2.73270E+09
       180     1790.0  5.16398E+06  2.78434E+09
       181     1800.0  5.23800E+06  2.83672E+09
       182     1810.0  5.30090E+06  2.88973E+09
       183     1820.0  5.36857E+06  2.94341E+09
       184     1830.0  5.44139E+06  2.99783E+09
       185     1840.0  5.50676E+06  3.05290E+09
       186     1850.0  5.59007E+06  3.10880E+09
       187     1860.0  5.67388E+06  3.16554E+09
       188     1870.0  5.75276E+06  3.22306E+09
       189     1880.0  5.83036E+06  3.28137E+09
       190     1890.0  5.91852E+06  3.34055E+09
       191     1900.0  6.00526E+06  3.40060E+09
       192     1910.0  6.09565E+06  3.46156E+09
       193     1920.0  6.18097E+06  3.52337E+09
       194     1930.0  6.27111E+06  3.58608E+09
       195     1940.0  6.36026E+06  3.64968E+09
       196     1950.0  6.44196E+06  3.71410E+09
       197     1960.0  6.52739E+06  3.77938E+09
       198     1970.0  6.62739E+06  3.84565E+09
       199     1980.0  6.71163E+06  3.91277E+09
       200     1990.0  6.79312E+06  3.98070E+09
       201     2000.0  6.89596E+06  4.04966E+09
       202     2010.0  6.97906E+06  4.11945E+09
       203     2020.0  7.07773E+06  4.19023E+09
       204     2030.0  7.16191E+06  4.26185E+09
       205     2040.0  7.26355E+06  4.33448E+09
       206     2050.0  7.35034E+06  4.40798E+09
       207     2060.0  7.45799E+06  4.48256E+09
       208     2070.0  7.56421E+06  4.55821E+09
       209     2080.0  7.64481E+06  4.63465E+09
       210     2090.0  7.75019E+06  4.71216E+09
       211     2100.0  7.86140E+06  4.79077E+09
       212     2110.0  7.96669E+06  4.87044E+09
       213     2120.0  8.07818E+06  4.95122E+09
       214     2130.0  8.19401E+06  5.03316E+09
       215     2140.0  8.27818E+06  5.11594E+09
       216     2150.0  8.41142E+06  5.20006E+09
       217     2160.0  8.49882E+06  5.28504E+09
       218     2170.0  8.60763E+06  5.37112E+09
       219     2180.0  8.72051E+06  5.45832E+09
       220     2190.0  8.82505E+06  5.54658E+09
       221     2200.0  8.92960E+06  5.63587E+09
       222     2210.0  9.06889E+06  5.72656E+09
       223     2220.0  9.16539E+06  5.81821E+09
       224     2230.0  9.29926E+06  5.91121E+09
       225     2240.0  9.40873E+06  6.00529E+09
       226     2250.0  9.52621E+06  6.10056E+09
       227     2260.0  9.65613E+06  6.19712E+09
       228     2270.0  9.77480E+06  6.29487E+09
       229     2280.0  9.89648E+06  6.39383E+09
       230     2290.0  1.00380E+07  6.49421E+09
       231     2300.0  1.01304E+07  6.59551E+09
       232     2310.0  1.02869E+07  6.69838E+09
       233     2320.0  1.04125E+07  6.80251E+09
       234     2330.0  1.05378E+07  6.90789E+09
       235     2340.0  1.06748E+07  7.01464E+09
       236     2350.0  1.07916E+07  7.12255E+09
       237     2360.0  1.09248E+07  7.23180E+09
       238     2370.0  1.10627E+07  7.34243E+09
       239     2380.0  1.11773E+07  7.45420E+09
       240     2390.0  1.13504E+07  7.56770E+09
       241     2400.0  1.14469E+07  7.68217E+09
       242     2410.0  1.16070E+07  7.79824E+09
       243     2420.0  1.17335E+07  7.91558E+09
       244     2430.0  1.18866E+07  8.03444E+09
       245     2440.0  1.20272E+07  8.15471E+09
       246     2450.0  1.21786E+07  8.27650E+09
       247     2460.0  1.22975E+07  8.39948E+09
       248     2470.0  1.24676E+07  8.52415E+09
       249     2480.0  1.25868E+07  8.65002E+09
       250     2490.0  1.27571E+07  8.77759E+09
       251     2500.0  1.29003E+07  8.90659E+09
       252     2510.0  1.30703E+07  9.03730E+09
       253     2520.0  1.31992E+07  9.16929E+09
       254     2530.0  1.33892E+07  9.30318E+09
       255     2540.0  1.35552E+07  9.43873E+09
       256     2550.0  1.36924E+07  9.57566E+09
       257     2560.0  1.38848E+07  9.71450E+09
       258     2570.0  1.40108E+07  9.85461E+09
       259     2580.0  1.42121E+07  9.99673E+09
       260     2590.0  1.43622E+07  1.01404E+10
       261     2600.0  1.45463E+07  1.02858E+10
       262     2610.0  1.46995E+07  1.04328E+10
       263     2620.0  1.48881E+07  1.05817E+10
       264     2630.0  1.50376E+07  1.07321E+10
       265     2640.0  1.52484E+07  1.08846E+10
       266     2650.0  1.53964E+07  1.10385E+10
       267     2660.0  1.56046E+07  1.11946E+10
       268     2670.0  1.57732E+07  1.13523E+10
       269     2680.0  1.59651E+07  1.15119E+10
       270     2690.0  1.61540E+07  1.16735E+10
       271     2700.0  1.63393E+07  1.18369E+10
       272     2710.0  1.65238E+07  1.20021E+10
       273     2720.0  1.67221E+07  1.21693E+10
       274     2730.0  1.69209E+07  1.23385E+10
       275     2740.0  1.71122E+07  1.25097E+10
       276     2750.0  1.73151E+07  1.26828E+10
       277     2760.0  1.75337E+07  1.28582E+10
       278     2770.0  1.77230E+07  1.30354E+10
       279     2780.0  1.79101E+07  1.32145E+10
       280     2790.0  1.81679E+07  1.33962E+10
       281     2800.0  1.83225E+07  1.35794E+10
       282     2810.0  1.85789E+07  1.37652E+10
       283     2820.0  1.87434E+07  1.39526E+10
       284     2830.0  1.90055E+07  1.41427E+10
       285     2840.0  1.91853E+07  1.43345E+10
       286     2850.0  1.94281E+07  1.45288E+10
       287     2860.0  1.96086E+07  1.47249E+10
       288     2870.0  1.98740E+07  1.49236E+10
       289     2880.0  2.00573E+07  1.51242E+10
       290     2890.0  2.03015E+07  1.53272E+10
       291     2900.0  2.05079E+07  1.55323E+10
       292     2910.0  2.07478E+07  1.57398E+10
       293     2920.0  2.09472E+07  1.59492E+10
       294     2930.0  2.11848E+07  1.61611E+10
       295     2940.0  2.14337E+07  1.63754E+10
       296     2950.0  2.16282E+07  1.65917E+10
       297     2960.0  2.18986E+07  1.68107E+10
       298     2970.0  2.21092E+07  1.70318E+10
       299     2980.0  2.23531E+07  1.72553E+10
       300     2990.0  2.25665E+07  1.74810E+10
       301     3000.0  2.28528E+07  1.77095E+10
       302        0.0  5.07500E+02  5.07500E+03
       303       66.7  1.54041E+04  3.31402E+05
       304      133.3  4.27673E+04  2.64129E+06
       305      200.0  8.99296E+04  8.46549E+06
       306      266.7  1.25624E+05  1.57661E+07
       307      333.3  1.76531E+05  2.65610E+07
       308      400.0  2.42840E+05  4.14480E+07
       309      466.7  3.02293E+05  5.80557E+07
       310      533.3  3.85716E+05  8.25029E+07
       311      600.0  4.76499E+05  1.13127E+08
       312      666.7  5.61181E+05  1.44537E+08
       313      733.3  6.71364E+05  1.88115E+08
       314      800.0  7.89093E+05  2.39755E+08
       315      866.7  9.09454E+05  2.91269E+08
       316      933.3  1.06759E+06  3.61130E+08
       317     1000.0  1.25291E+06  4.43088E+08
       318     1066.7  1.43423E+06  5.24495E+08
       319     1133.3  1.67813E+06  6.34533E+08
       320     1200.0  1.94221E+06  7.62484E+08
       321     1266.7  2.18307E+06  8.87325E+08
       322     1333.3  2.48642E+06  1.05254E+09
       323     1400.0  2.81803E+06  1.23942E+09
       324     1466.7  3.13722E+06  1.41952E+09
       325     1533.3  3.52372E+06  1.65407E+09
       326     1600.0  3.91833E+06  1.91618E+09
       327     1666.7  4.31058E+06  2.16485E+09
       328     1733.3  4.76602E+06  2.48421E+09
       329     1800.0  5.23800E+06  2.83672E+09
       330     1866.7  5.67388E+06  3.16554E+09
       331     1933.3  6.27111E+06  3.58608E+09
       332     2000.0  6.89596E+06  4.04966E+09
       333     2066.7  7.45799E+06  4.48256E+09
       334     2133.3  8.19401E+06  5.03316E+09
       335     2200.0  8.92960E+06  5.63587E+09
       336     2266.7  9.65613E+06  6.19712E+09
       337     2333.3  1.05378E+07  6.90789E+09
       338     2400.0  1.14469E+07  7.68217E+09
       339     2466.7  1.22975E+07  8.39948E+09
       340     2533.3  1.33892E+07  9.30318E+09
       341     2600.0  1.45463E+07  1.02858E+10
       342     2666.7  1.56046E+07  1.11946E+10
       343     2733.3  1.69209E+07  1.23385E+10
       344     2800.0  1.83225E+07  1.35794E+10
       345     2866.7  1.96086E+07  1.47249E+10
       346     2933.3  2.11848E+07  1.61611E+10
       347     3000.0  2.28528E+07  1.77095E+10
       348     3066.7  2.43441E+07  1.91307E+10
       349     3133.3  2.60894E+07  2.09039E+10
       350     3200.0  2.80193E+07  2.28088E+10
       351     3266.7  2.97787E+07  2.45548E+10
       352     3333.3  3.20347E+07  2.67307E+10
       353     3400.0  3.42835E+07  2.90584E+10
       354     3466.7  3.62749E+07  3.11828E+10
       355     3533.3  3.86930E+07  3.38167E+10
       356     3600.0  4.11892E+07  3.66248E+10
       357     3666.7  4.35184E+07  3.91789E+10
       358     3733.3  4.62706E+07  4.23354E+10
       359     3800.0  4.92728E+07  4.56944E+10
       360     3866.7  5.20086E+07  4.87447E+10
       361     3933.3  5.52376E+07  5.25127E+10
       362     4000.0  5.87480E+07  5.65205E+10
       363     4066.7  6.18078E+07  6.01509E+10
       364     4133.3  6.55155E+07  6.46257E+10
       365     4200.0  6.92689E+07  6.93643E+10
       366     4266.7  7.28149E+07  7.36438E+10
       367     4333.3  7.72159E+07  7.89153E+10
       368     4400.0  8.17522E+07  8.45017E+10
       369     4466.7  8.56314E+07  8.95405E+10
       370     4533.3  9.05454E+07  9.57296E+10
       371     4600.0  9.56605E+07  1.02271E+11
       372     4666.7  1.00111E+08  1.08168E+11
