**************INPUT DATA SUMMARY**************
%%%%%%%%%%%%%%%%%%%%%%%%%%%%%%%%%%%%%%%%%%%%%%%%%%%%%%%%%%%%%%%%%%%%%%%%%%%%%%

                      parsctst-2021.0 

                         Feb 2021

 Authors: sctst:
          John R. Barker    jrbarker@umich.ed
          Thanh Lam Nguyen  nguyenlt@cm.utexas.edu

          parsctst: 
          Chiara Aieta      chiara.aieta@unimi.it
          Fabio Gabas       fabio.gabas@unimi.it
          Michele Ceotto    michele.ceotto@unimi.it

       http://clasp-research.engin.umich.edu/multiwell/

%%%%%%%%%%%%%%%%%%%%%%%%%%%%%%%%%%%%%%%%%%%%%%%%%%%%%%%%%%%%%%%%%%%%%%%%%%%%%%


Suggested Literature Citation:

    a) MultiWell-2021.0 Software, Feb 2021, designed and
       maintained by J.R. Barker with contributor T.L. Nguyen,
       J.F. Stanton, C. Aieta, M. Ceotto, F. Gabas, T.J.D. Kumar
       C.G.L. Li, L.L. Lohr, A. Maranzana, N.F. Ortiz, J.M. Preses
       J.M. Simmie, J.A. Sonk, and P.J. Stimac, University of Michigan,
       Ann Arbor, MI; http://clasp-research.engin.umich.edu/multiwell/.

    b) John R. Barker, Int. J. Chem. Kinetics, 33, 232-45
       (2001).

    c) John R. Barker, Int. J. Chem. Kinetics, 41, 748-763
       (2009).

    d) W. H. Miller, J. Chem. Phys. 62, 1899 (1975).

    e) W. H. Miller, Faraday Discuss. Chem. Soc. 62, 40 (1977).

    f) W. H. Miller, R. Hernandez, N. C. Handy, D. 
       Jayatilaka, and A. Willets, Chem. Phys. Letters
       172, 62 (1990).

    g) R. Hernandez and W. H. Miller, Chem. Phys. Lett. 214
       (2), 129 (1993).

    h) T. L. Nguyen, J. F. Stanton, and J. R. Barker,
       Chem. Phys. Letters 499, 9 (2010).

    i) T. L. Nguyen, J. F. Stanton, and J. R. Barker,
       J. Phys. Chem. A 115, 5118 (2011).

    l) C. Aieta, F. Gabas, M. Ceotto J. Chem. Theory Comput.
       2019, DOI:10.1021/acs.jctc.8b01286 (2019)

%%%%%%%%%%%%%%%%%%%%%%%%%%%%%%%%%%%%%%%%%%%%%%%%%%%%%%%%%%%%%%%%%%%%%%%%%%%%%%


T-52ch4   
Transition state for normal isotopologue Cl + CH4                                                   
CCSD(T); full aVTZ                                                                                  

....................................................
          2021/02/03   12:22:31.733   (Local Time)
          year/mm/dd   hr:mi:second
                 CPU :        0.047 s (  0.000 hr)
....................................................
 11 Vibrational Frequencies (cm-1)  
  We; E = We*(v+1/2) +...; Wo: E = W0*v +...;  0<->1 fund.  
  De: BDE for Separable Morse oscillator [0.0 if non-Morse]

  No.     We         Wo      0-1_Fund.   De(cm-1)
    1    365.112    378.776    391.493        0.0
    2    365.112    378.508    391.286        0.0
    3    513.758    525.871    540.503        0.0
    4    929.643    946.003    977.326        0.0
    5    929.643    946.304    977.525        0.0
    6   1197.895   1251.230   1249.252   197963.6
    7   1436.493   1404.651   1395.609    54551.6
    8   1436.493   1404.858   1395.844    54737.2
    9   3081.716   2981.069   2963.404   125768.7
   10   3241.832   3126.455   3094.966    77605.5
   11   3241.832   3126.159   3094.695    77649.7

 Ave:   1521.775   1497.262   1497.446

Anharmonicity Matrix (cm-1)
         1         2         3         4         5         6         7         8         9        10        11
  1    12.717     7.734   -34.275    29.341     2.237    -1.916    -0.426     4.014    -1.069    -1.632    -2.114
  2     7.734    12.779   -34.394     1.998    29.562    -2.709     3.948    -0.464    -1.070    -1.789    -1.584
  3   -34.275   -34.394    14.632   -70.391   -70.391   193.691    -2.889    -2.889     3.166     6.668     6.668
  4    29.341     1.998   -70.391    31.324    50.412   -20.103     2.478     1.409    -5.347   -12.226    -7.498
  5     2.237    29.562   -70.391    50.412    31.221   -19.991     1.432     2.632    -5.296    -7.432   -12.285
  6    -1.916    -2.709   193.691   -20.103   -19.991    -1.977    -5.284    -5.284    -4.405   -11.688   -11.688
  7    -0.426     3.948    -2.889     2.478     1.432    -5.284    -9.042    -8.904    -4.782   -11.378   -19.794
  8     4.014    -0.464    -2.889     1.409     2.632    -5.284    -8.904    -9.014    -4.698   -19.618   -11.439
  9    -1.069    -1.070     3.166    -5.347    -5.296    -4.405    -4.782    -4.698   -17.665   -71.233   -71.233
 10    -1.632    -1.789     6.668   -12.226    -7.432   -11.688   -11.378   -19.618   -71.233   -31.488   -37.449
 11    -2.114    -1.584     6.668    -7.498   -12.285   -11.688   -19.794   -11.439   -71.233   -37.449   -31.465

             Partial ZPEanh =   8302.353 cm-1  (omits Go from VPT2 and separable D.O.F.)



  1 SEPARABLE DEGREES OF FREEDOM

   12  Symm-Top  2D-Moment =   89.91 amua, B2 =  0.1875 cm-1  ;  1D-Moment =    3.43 amua, B1 =  4.9208 cm-1  ;  Symm. No. = 3

 ------------------------------
 Parallel execution parameters:
 ------------------------------
Number of windows:   4
Number of walkers in each window:   1
Overlap:  70.00%
Flatness criterion: 0.600
 Additional writinig enabled.
Random number generator seed modifier:   0

 --- END INPUT ---
     REACTION PARAMETERS
     Forward and reverse barriers (+ZPE):   Vf           Vr
                                         13.954      10.344  KJOU  
                                       1166.460     864.688  cm-1

     VPT4A: VPT2 + VPT4 (Eq. 42 in Stanton, 2016)

     Imaginary frequency (cm-1)    =    1026.07
     Diagonal anharmonicity (cm-1) =    -311.87

     Off-Diagonal anharmonicities (cm-1):

         CFOUR style    or   GAUSSIAN style
      k     X(k,f)      or      i*X(k,f) 

      1      53.98i              -53.98
      2      53.98i              -53.98
      3    -318.37i              318.37
      4     175.92i             -175.92
      5     175.92i             -175.92
      6    -195.34i              195.34
      7       8.15i               -8.15
      8       8.15i               -8.15
      9      -6.60i                6.60
     10     -14.49i               14.49
     11     -14.49i               14.49


TOTAL ZPEanh:   8302.353 cm-1 for all coupled & separable D.O.F.; omits the reaction coordinate and Go from VPT2.

**************INPUT DATA SUMMARY**************
 T-52ch4
 Transition state for normal isotopologue Cl + CH4                                                   
        5.0       2000    30000.0       2500      365.1
       No.     (cm-1)   Density   Sum(E=0 at reactant ZPE in exothermic direction)
         1        0.0  0.000E+00  0.000E+00
         2        5.0  0.000E+00  0.000E+00
         3       10.0  0.000E+00  0.000E+00
         4       15.0  0.000E+00  0.000E+00
         5       20.0  0.000E+00  0.000E+00
         6       25.0  0.000E+00  0.000E+00
         7       30.0  0.000E+00  0.000E+00
         8       35.0  0.000E+00  0.000E+00
         9       40.0  0.000E+00  0.000E+00
        10       45.0  0.000E+00  0.000E+00
        11       50.0  0.000E+00  0.000E+00
        12       55.0  0.000E+00  0.000E+00
        13       60.0  0.000E+00  0.000E+00
        14       65.0  0.000E+00  0.000E+00
        15       70.0  0.000E+00  0.000E+00
        16       75.0  0.000E+00  0.000E+00
        17       80.0  0.000E+00  0.000E+00
        18       85.0  0.000E+00  0.000E+00
        19       90.0  0.000E+00  0.000E+00
        20       95.0  0.000E+00  0.000E+00
        21      100.0  0.000E+00  0.000E+00
        22      105.0  0.000E+00  0.000E+00
        23      110.0  0.000E+00  0.000E+00
        24      115.0  0.000E+00  0.000E+00
        25      120.0  0.000E+00  0.000E+00
        26      125.0  0.000E+00  0.000E+00
        27      130.0  0.000E+00  0.000E+00
        28      135.0  0.000E+00  0.000E+00
        29      140.0  0.000E+00  0.000E+00
        30      145.0  0.000E+00  0.000E+00
        31      150.0  0.000E+00  0.000E+00
        32      155.0  8.378E-05  4.189E-04
        33      160.0  3.589E-04  2.213E-03
        34      165.0  7.300E-04  5.863E-03
        35      170.0  1.187E-03  1.180E-02
        36      175.0  1.773E-03  2.066E-02
        37      180.0  2.431E-03  3.282E-02
        38      185.0  3.108E-03  4.836E-02
        39      190.0  3.697E-03  6.684E-02
        40      195.0  4.363E-03  8.866E-02
        41      200.0  5.349E-03  1.154E-01
        42      205.0  6.550E-03  1.482E-01
        43      210.0  7.903E-03  1.877E-01
        44      215.0  9.031E-03  2.328E-01
        45      220.0  1.027E-02  2.842E-01
        46      225.0  1.194E-02  3.439E-01
        47      230.0  1.358E-02  4.118E-01
        48      235.0  1.491E-02  4.863E-01
        49      240.0  1.697E-02  5.712E-01
        50      245.0  1.940E-02  6.682E-01
        51      250.0  2.141E-02  7.752E-01
        52      255.0  2.401E-02  8.953E-01
        53      260.0  2.682E-02  1.029E+00
        54      265.0  2.904E-02  1.175E+00
        55      270.0  3.260E-02  1.338E+00
        56      275.0  3.629E-02  1.519E+00
        57      280.0  3.937E-02  1.716E+00
        58      285.0  4.319E-02  1.932E+00
        59      290.0  4.748E-02  2.169E+00
        60      295.0  5.173E-02  2.428E+00
        61      300.0  5.650E-02  2.710E+00
        62      305.0  6.134E-02  3.017E+00
        63      310.0  6.649E-02  3.350E+00
        64      315.0  7.188E-02  3.709E+00
        65      320.0  7.736E-02  4.096E+00
        66      325.0  8.411E-02  4.516E+00
        67      330.0  9.061E-02  4.969E+00
        68      335.0  9.828E-02  5.461E+00
        69      340.0  1.056E-01  5.989E+00
        70      345.0  1.134E-01  6.556E+00
        71      350.0  1.221E-01  7.166E+00
        72      355.0  1.304E-01  7.819E+00
        73      360.0  1.412E-01  8.524E+00
        74      365.0  1.504E-01  9.277E+00
        75      370.0  1.619E-01  1.009E+01
        76      375.0  1.726E-01  1.095E+01
        77      380.0  1.822E-01  1.186E+01
        78      385.0  1.963E-01  1.284E+01
        79      390.0  2.089E-01  1.389E+01
        80      395.0  2.238E-01  1.500E+01
        81      400.0  2.371E-01  1.619E+01
        82      405.0  2.516E-01  1.745E+01
        83      410.0  2.692E-01  1.879E+01
        84      415.0  2.856E-01  2.022E+01
        85      420.0  3.025E-01  2.174E+01
        86      425.0  3.214E-01  2.334E+01
        87      430.0  3.403E-01  2.504E+01
        88      435.0  3.600E-01  2.684E+01
        89      440.0  3.824E-01  2.876E+01
        90      445.0  4.044E-01  3.078E+01
        91      450.0  4.282E-01  3.292E+01
        92      455.0  4.519E-01  3.518E+01
        93      460.0  4.766E-01  3.756E+01
        94      465.0  5.052E-01  4.009E+01
        95      470.0  5.324E-01  4.275E+01
        96      475.0  5.603E-01  4.555E+01
        97      480.0  5.926E-01  4.851E+01
        98      485.0  6.251E-01  5.164E+01
        99      490.0  6.583E-01  5.493E+01
       100      495.0  6.943E-01  5.840E+01
       101      500.0  7.305E-01  6.206E+01
       102      505.0  7.671E-01  6.589E+01
       103      510.0  8.083E-01  6.993E+01
       104      515.0  8.504E-01  7.418E+01
       105      520.0  8.929E-01  7.865E+01
       106      525.0  9.379E-01  8.334E+01
       107      530.0  9.855E-01  8.827E+01
       108      535.0  1.035E+00  9.344E+01
       109      540.0  1.085E+00  9.886E+01
       110      545.0  1.136E+00  1.045E+02
       111      550.0  1.193E+00  1.105E+02
       112      555.0  1.250E+00  1.168E+02
       113      560.0  1.309E+00  1.233E+02
       114      565.0  1.371E+00  1.302E+02
       115      570.0  1.434E+00  1.373E+02
       116      575.0  1.499E+00  1.448E+02
       117      580.0  1.569E+00  1.527E+02
       118      585.0  1.642E+00  1.609E+02
       119      590.0  1.714E+00  1.694E+02
       120      595.0  1.791E+00  1.784E+02
       121      600.0  1.871E+00  1.878E+02
       122      605.0  1.951E+00  1.975E+02
       123      610.0  2.036E+00  2.077E+02
       124      615.0  2.123E+00  2.183E+02
       125      620.0  2.215E+00  2.294E+02
       126      625.0  2.307E+00  2.409E+02
       127      630.0  2.401E+00  2.529E+02
       128      635.0  2.504E+00  2.654E+02
       129      640.0  2.606E+00  2.785E+02
       130      645.0  2.712E+00  2.920E+02
       131      650.0  2.821E+00  3.061E+02
       132      655.0  2.936E+00  3.208E+02
       133      660.0  3.051E+00  3.361E+02
       134      665.0  3.168E+00  3.519E+02
       135      670.0  3.295E+00  3.684E+02
       136      675.0  3.419E+00  3.855E+02
       137      680.0  3.554E+00  4.033E+02
       138      685.0  3.683E+00  4.217E+02
       139      690.0  3.818E+00  4.408E+02
       140      695.0  3.968E+00  4.606E+02
       141      700.0  4.108E+00  4.811E+02
       142      705.0  4.258E+00  5.024E+02
       143      710.0  4.408E+00  5.245E+02
       144      715.0  4.570E+00  5.473E+02
       145      720.0  4.730E+00  5.710E+02
       146      725.0  4.891E+00  5.954E+02
       147      730.0  5.062E+00  6.207E+02
       148      735.0  5.239E+00  6.469E+02
       149      740.0  5.413E+00  6.740E+02
       150      745.0  5.591E+00  7.020E+02
       151      750.0  5.782E+00  7.309E+02
       152      755.0  5.970E+00  7.607E+02
       153      760.0  6.166E+00  7.915E+02
       154      765.0  6.362E+00  8.234E+02
       155      770.0  6.565E+00  8.562E+02
       156      775.0  6.775E+00  8.901E+02
       157      780.0  6.983E+00  9.250E+02
       158      785.0  7.196E+00  9.609E+02
       159      790.0  7.421E+00  9.981E+02
       160      795.0  7.645E+00  1.036E+03
       161      800.0  7.873E+00  1.076E+03
       162      805.0  8.107E+00  1.116E+03
       163      810.0  8.344E+00  1.158E+03
       164      815.0  8.587E+00  1.201E+03
       165      820.0  8.835E+00  1.245E+03
       166      825.0  9.085E+00  1.290E+03
       167      830.0  9.343E+00  1.337E+03
       168      835.0  9.602E+00  1.385E+03
       169      840.0  9.868E+00  1.434E+03
       170      845.0  1.014E+01  1.485E+03
       171      850.0  1.041E+01  1.537E+03
       172      855.0  1.069E+01  1.591E+03
       173      860.0  1.098E+01  1.646E+03
       174      865.0  1.126E+01  1.702E+03
       175      870.0  1.156E+01  1.760E+03
       176      875.0  1.185E+01  1.819E+03
       177      880.0  1.215E+01  1.880E+03
       178      885.0  1.246E+01  1.942E+03
       179      890.0  1.277E+01  2.006E+03
       180      895.0  1.309E+01  2.071E+03
       181      900.0  1.341E+01  2.138E+03
       182      905.0  1.373E+01  2.207E+03
       183      910.0  1.406E+01  2.277E+03
       184      915.0  1.440E+01  2.349E+03
       185      920.0  1.473E+01  2.423E+03
       186      925.0  1.508E+01  2.498E+03
       187      930.0  1.543E+01  2.575E+03
       188      935.0  1.578E+01  2.654E+03
       189      940.0  1.614E+01  2.735E+03
       190      945.0  1.650E+01  2.818E+03
       191      950.0  1.687E+01  2.902E+03
       192      955.0  1.724E+01  2.988E+03
       193      960.0  1.762E+01  3.076E+03
       194      965.0  1.801E+01  3.166E+03
       195      970.0  1.839E+01  3.258E+03
       196      975.0  1.878E+01  3.352E+03
       197      980.0  1.918E+01  3.448E+03
       198      985.0  1.959E+01  3.546E+03
       199      990.0  2.000E+01  3.646E+03
       200      995.0  2.041E+01  3.748E+03
       201     1000.0  2.083E+01  3.852E+03
       202     1005.0  2.126E+01  3.958E+03
       203     1010.0  2.169E+01  4.067E+03
       204     1015.0  2.212E+01  4.177E+03
       205     1020.0  2.256E+01  4.290E+03
       206     1025.0  2.302E+01  4.405E+03
       207     1030.0  2.346E+01  4.523E+03
       208     1035.0  2.392E+01  4.642E+03
       209     1040.0  2.439E+01  4.764E+03
       210     1045.0  2.485E+01  4.888E+03
       211     1050.0  2.533E+01  5.015E+03
       212     1055.0  2.580E+01  5.144E+03
       213     1060.0  2.629E+01  5.276E+03
       214     1065.0  2.679E+01  5.410E+03
       215     1070.0  2.728E+01  5.546E+03
       216     1075.0  2.778E+01  5.685E+03
       217     1080.0  2.830E+01  5.826E+03
       218     1085.0  2.881E+01  5.970E+03
       219     1090.0  2.932E+01  6.117E+03
       220     1095.0  2.987E+01  6.266E+03
       221     1100.0  3.041E+01  6.418E+03
       222     1105.0  3.096E+01  6.573E+03
       223     1110.0  3.151E+01  6.731E+03
       224     1115.0  3.207E+01  6.891E+03
       225     1120.0  3.266E+01  7.054E+03
       226     1125.0  3.324E+01  7.221E+03
       227     1130.0  3.381E+01  7.390E+03
       228     1135.0  3.442E+01  7.562E+03
       229     1140.0  3.502E+01  7.737E+03
       230     1145.0  3.563E+01  7.915E+03
       231     1150.0  3.629E+01  8.096E+03
       232     1155.0  3.690E+01  8.281E+03
       233     1160.0  3.756E+01  8.469E+03
       234     1165.0  3.820E+01  8.660E+03
       235     1170.0  3.887E+01  8.854E+03
       236     1175.0  3.953E+01  9.052E+03
       237     1180.0  4.020E+01  9.253E+03
       238     1185.0  4.094E+01  9.457E+03
       239     1190.0  4.159E+01  9.665E+03
       240     1195.0  4.236E+01  9.877E+03
       241     1200.0  4.304E+01  1.009E+04
       242     1205.0  4.375E+01  1.031E+04
       243     1210.0  4.457E+01  1.053E+04
       244     1215.0  4.529E+01  1.076E+04
       245     1220.0  4.610E+01  1.099E+04
       246     1225.0  4.683E+01  1.123E+04
       247     1230.0  4.765E+01  1.146E+04
       248     1235.0  4.849E+01  1.171E+04
       249     1240.0  4.928E+01  1.195E+04
       250     1245.0  5.011E+01  1.220E+04
       251     1250.0  5.097E+01  1.246E+04
       252     1255.0  5.179E+01  1.272E+04
       253     1260.0  5.266E+01  1.298E+04
       254     1265.0  5.359E+01  1.325E+04
       255     1270.0  5.445E+01  1.352E+04
       256     1275.0  5.543E+01  1.380E+04
       257     1280.0  5.627E+01  1.408E+04
       258     1285.0  5.722E+01  1.436E+04
       259     1290.0  5.823E+01  1.466E+04
       260     1295.0  5.911E+01  1.495E+04
       261     1300.0  6.014E+01  1.525E+04
       262     1305.0  6.113E+01  1.556E+04
       263     1310.0  6.217E+01  1.587E+04
       264     1315.0  6.314E+01  1.618E+04
       265     1320.0  6.415E+01  1.650E+04
       266     1325.0  6.524E+01  1.683E+04
       267     1330.0  6.623E+01  1.716E+04
       268     1335.0  6.743E+01  1.750E+04
       269     1340.0  6.841E+01  1.784E+04
       270     1345.0  6.952E+01  1.819E+04
       271     1350.0  7.070E+01  1.854E+04
       272     1355.0  7.180E+01  1.890E+04
       273     1360.0  7.292E+01  1.927E+04
       274     1365.0  7.407E+01  1.964E+04
       275     1370.0  7.524E+01  2.001E+04
       276     1375.0  7.644E+01  2.039E+04
       277     1380.0  7.761E+01  2.078E+04
       278     1385.0  7.885E+01  2.118E+04
       279     1390.0  8.010E+01  2.158E+04
       280     1395.0  8.129E+01  2.198E+04
       281     1400.0  8.253E+01  2.240E+04
       282     1405.0  8.388E+01  2.282E+04
       283     1410.0  8.512E+01  2.324E+04
       284     1415.0  8.636E+01  2.367E+04
       285     1420.0  8.775E+01  2.411E+04
       286     1425.0  8.909E+01  2.456E+04
       287     1430.0  9.038E+01  2.501E+04
       288     1435.0  9.180E+01  2.547E+04
       289     1440.0  9.308E+01  2.593E+04
       290     1445.0  9.450E+01  2.641E+04
       291     1450.0  9.593E+01  2.689E+04
       292     1455.0  9.728E+01  2.737E+04
       293     1460.0  9.881E+01  2.787E+04
       294     1465.0  1.001E+02  2.837E+04
       295     1470.0  1.017E+02  2.888E+04
       296     1475.0  1.032E+02  2.939E+04
       297     1480.0  1.046E+02  2.991E+04
       298     1485.0  1.061E+02  3.044E+04
       299     1490.0  1.076E+02  3.098E+04
       300     1495.0  1.092E+02  3.153E+04
       301     1500.0  1.107E+02  3.208E+04
       302     1505.0  1.123E+02  3.264E+04
       303     1510.0  1.138E+02  3.321E+04
       304     1515.0  1.155E+02  3.379E+04
       305     1520.0  1.171E+02  3.438E+04
       306     1525.0  1.187E+02  3.497E+04
       307     1530.0  1.203E+02  3.557E+04
