**************INPUT DATA SUMMARY**************
%%%%%%%%%%%%%%%%%%%%%%%%%%%%%%%%%%%%%%%%%%%%%%%%%%%%%%%%%%%%%%%%%%%%%%%%%%%%%%

                     bdens-2017    (Jan 2017)

Copyright (C) 2016, 2017 Collin G.L. Li, Thanh Lam Nguyen, and John R. Barker

        CONTACT:         John R. Barker
                      (jrbarker@umich.edu)
                     University of Michigan
                  Ann Arbor, Michigan 48109-2143

         http://clasp-research.engin.umich.edu/multiwell/

%%%%%%%%%%%%%%%%%%%%%%%%%%%%%%%%%%%%%%%%%%%%%%%%%%%%%%%%%%%%%%%%%%%%%%%%%%%%%%

Suggested Literature Citations:

    a) J.R. Barker, T.L. Nguyen, J.F. Stanton, C. Aieta, M. Ceotto,
       F. Gabas, T.J.D. Kumar, C.G.L.Li, L.L.Lohr, A. Maranzana,
       N.F. Ortiz, J.M. Preses, J.M. Simmie, J.A. Sonk, and P.J. Stimac; 
       MultiWell-2017    Software Suite; University of Michigan, 
       Ann Arbor, Michigan, USA, Jan 2017; 
       http://clasp-research.engin.umich.edu/multiwell/.

    b) J.R. Barker, Int. J. Chem. Kinetics, 33, 232-45 (2001)

    c) J.R. Barker, Int. J. Chem. Kinetics, 41, 748-763 (2009)

    b) F. Wang and D.P. Landau, Phys. Rev. Letters 86, 
       2050-2053 (2001).

    c) M. Basire, P. Parneix, and F. Calvo, J. Chem. Phys. 129,
       081101 (2008).

    d) T.L. Nguyen and J.R. Barker, J. Phys. Chem. A., 114,
       3718-3730 (2010).

%%%%%%%%%%%%%%%%%%%%%%%%%%%%%%%%%%%%%%%%%%%%%%%%%%%%%%%%%%%%%%%%%%%%%%%%%%%%%%

ch4       
methane                                                                                             
harmonic freq: aVTZ; anharmonicities: aVDZ                                                          

....................................................
          2017/02/08   08:18:56.876   (Local Time)
          year/mm/dd   hr:mi:second
                 CPU :        0.004 s (  0.000 hr)
....................................................
  9 Vibrational Frequencies (cm-1)  
  We; E = We*(v+1/2) +...; Wo: E = W0*v +...;  0<->1 fund.  
  De: BDE for Separable Morse oscillator [0.0 if non-Morse]

  No.     We         Wo      0-1_Fund.   De(cm-1)
    1   1350.642   1322.677   1318.931   116759.4
    2   1350.642   1325.153   1318.944    70708.5
    3   1350.642   1325.152   1318.943    70706.1
    4   1573.711   1539.290   1538.596   853781.2
    5   1573.711   1579.162   1578.469   899621.7
    6   3027.536   2909.713   2896.033   154718.3
    7   3146.543   3026.434   3010.027   139564.8
    8   3146.543   3040.078   3006.291    68383.6
    9   3146.543   3040.079   3006.291    68383.9
Anharmonicity Matrix (cm-1)
         1         2         3         4         5         6         7         8         9
  1    -3.746    -5.777    -5.777   -10.953     2.650    -2.261    -9.110    -8.604    -8.604
  2    -5.777    -6.209     4.086    -0.747    -7.550    -2.260    -8.602    -9.274    -8.436
  3    -5.777     4.086    -6.209    -0.747    -7.551    -2.260    -8.602    -8.436    -9.274
  4   -10.953    -0.747    -0.747    -0.694    -0.619   -14.514   -10.799   -14.537   -14.537
  5     2.650    -7.550    -7.551    -0.619    -0.693   -14.514    15.784    12.044    12.044
  6    -2.261    -2.260    -2.260   -14.514   -14.514   -13.680   -57.491   -57.492   -57.491
  7    -9.110    -8.602    -8.602   -10.799    15.784   -57.491   -16.407   -64.291   -64.291
  8    -8.604    -9.274    -8.436   -14.537    12.044   -57.492   -64.291   -33.788     5.237
  9    -8.604    -8.436    -9.274   -14.537    12.044   -57.491   -64.291     5.237   -33.788


 SEPARABLE DEGREES OF FREEDOM

 10  Quantized Rotor:  I(Amu.A**2) =    3.200 ;  Sym. = 1 ;  Dim. =  3 ;  B(cm-1) =    5.269
  
AUTO  : Eswitch = 25000.0

 --- END INPUT ---

TOTAL ZPEanh:   9693.563 cm-1 for all coupled & separable D.O.F.; omits Go from VPT2.

Eswitch =   25000.0 cm-1 (AUTO)

**************INPUT DATA SUMMARY**************
 ch4
 methane                                                                                             
        5.0        501    25000.0        752     1350.6    9693.56
       No.     (cm-1)   Density    Sum
         1        0.0 2.0000E-01 1.0000E+00
         2        5.0 0.0000E+00 1.0000E+00
         3       10.0 1.8000E+00 1.0000E+01
         4       15.0 0.0000E+00 1.0000E+01
         5       20.0 0.0000E+00 1.0000E+01
         6       25.0 0.0000E+00 1.0000E+01
         7       30.0 5.0000E+00 3.5000E+01
         8       35.0 0.0000E+00 3.5000E+01
         9       40.0 0.0000E+00 3.5000E+01
        10       45.0 0.0000E+00 3.5000E+01
        11       50.0 0.0000E+00 3.5000E+01
        12       55.0 0.0000E+00 3.5000E+01
        13       60.0 0.0000E+00 3.5000E+01
        14       65.0 9.8000E+00 8.4000E+01
        15       70.0 0.0000E+00 8.4000E+01
        16       75.0 0.0000E+00 8.4000E+01
        17       80.0 0.0000E+00 8.4000E+01
        18       85.0 0.0000E+00 8.4000E+01
        19       90.0 0.0000E+00 8.4000E+01
        20       95.0 0.0000E+00 8.4000E+01
        21      100.0 0.0000E+00 8.4000E+01
        22      105.0 1.6200E+01 1.6500E+02
        23      110.0 0.0000E+00 1.6500E+02
        24      115.0 0.0000E+00 1.6500E+02
        25      120.0 0.0000E+00 1.6500E+02
        26      125.0 0.0000E+00 1.6500E+02
        27      130.0 0.0000E+00 1.6500E+02
        28      135.0 0.0000E+00 1.6500E+02
        29      140.0 0.0000E+00 1.6500E+02
        30      145.0 0.0000E+00 1.6500E+02
        31      150.0 0.0000E+00 1.6500E+02
        32      155.0 0.0000E+00 1.6500E+02
        33      160.0 2.4200E+01 2.8600E+02
        34      165.0 0.0000E+00 2.8600E+02
        35      170.0 0.0000E+00 2.8600E+02
        36      175.0 0.0000E+00 2.8600E+02
        37      180.0 0.0000E+00 2.8600E+02
        38      185.0 0.0000E+00 2.8600E+02
        39      190.0 0.0000E+00 2.8600E+02
        40      195.0 0.0000E+00 2.8600E+02
        41      200.0 0.0000E+00 2.8600E+02
        42      205.0 0.0000E+00 2.8600E+02
        43      210.0 0.0000E+00 2.8600E+02
        44      215.0 0.0000E+00 2.8600E+02
        45      220.0 3.3800E+01 4.5500E+02
        46      225.0 0.0000E+00 4.5500E+02
        47      230.0 0.0000E+00 4.5500E+02
        48      235.0 0.0000E+00 4.5500E+02
        49      240.0 0.0000E+00 4.5500E+02
        50      245.0 0.0000E+00 4.5500E+02
        51      250.0 0.0000E+00 4.5500E+02
        52      255.0 0.0000E+00 4.5500E+02
        53      260.0 0.0000E+00 4.5500E+02
        54      265.0 0.0000E+00 4.5500E+02
        55      270.0 0.0000E+00 4.5500E+02
        56      275.0 0.0000E+00 4.5500E+02
        57      280.0 0.0000E+00 4.5500E+02
        58      285.0 0.0000E+00 4.5500E+02
        59      290.0 0.0000E+00 4.5500E+02
        60      295.0 4.5000E+01 6.8000E+02
        61      300.0 0.0000E+00 6.8000E+02
        62      305.0 0.0000E+00 6.8000E+02
        63      310.0 0.0000E+00 6.8000E+02
        64      315.0 0.0000E+00 6.8000E+02
        65      320.0 0.0000E+00 6.8000E+02
        66      325.0 0.0000E+00 6.8000E+02
        67      330.0 0.0000E+00 6.8000E+02
        68      335.0 0.0000E+00 6.8000E+02
        69      340.0 0.0000E+00 6.8000E+02
        70      345.0 0.0000E+00 6.8000E+02
        71      350.0 0.0000E+00 6.8000E+02
        72      355.0 0.0000E+00 6.8000E+02
        73      360.0 0.0000E+00 6.8000E+02
        74      365.0 0.0000E+00 6.8000E+02
        75      370.0 0.0000E+00 6.8000E+02
        76      375.0 0.0000E+00 6.8000E+02
        77      380.0 5.7800E+01 9.6900E+02
        78      385.0 0.0000E+00 9.6900E+02
        79      390.0 0.0000E+00 9.6900E+02
        80      395.0 0.0000E+00 9.6900E+02
        81      400.0 0.0000E+00 9.6900E+02
        82      405.0 0.0000E+00 9.6900E+02
        83      410.0 0.0000E+00 9.6900E+02
        84      415.0 0.0000E+00 9.6900E+02
        85      420.0 0.0000E+00 9.6900E+02
        86      425.0 0.0000E+00 9.6900E+02
        87      430.0 0.0000E+00 9.6900E+02
        88      435.0 0.0000E+00 9.6900E+02
        89      440.0 0.0000E+00 9.6900E+02
        90      445.0 0.0000E+00 9.6900E+02
        91      450.0 0.0000E+00 9.6900E+02
        92      455.0 0.0000E+00 9.6900E+02
        93      460.0 0.0000E+00 9.6900E+02
        94      465.0 0.0000E+00 9.6900E+02
        95      470.0 0.0000E+00 9.6900E+02
        96      475.0 7.2200E+01 1.3300E+03
        97      480.0 0.0000E+00 1.3300E+03
        98      485.0 0.0000E+00 1.3300E+03
        99      490.0 0.0000E+00 1.3300E+03
       100      495.0 0.0000E+00 1.3300E+03
       101      500.0 0.0000E+00 1.3300E+03
       102      505.0 0.0000E+00 1.3300E+03
       103      510.0 0.0000E+00 1.3300E+03
       104      515.0 0.0000E+00 1.3300E+03
       105      520.0 0.0000E+00 1.3300E+03
       106      525.0 0.0000E+00 1.3300E+03
       107      530.0 0.0000E+00 1.3300E+03
       108      535.0 0.0000E+00 1.3300E+03
       109      540.0 0.0000E+00 1.3300E+03
       110      545.0 0.0000E+00 1.3300E+03
       111      550.0 0.0000E+00 1.3300E+03
       112      555.0 0.0000E+00 1.3300E+03
       113      560.0 0.0000E+00 1.3300E+03
       114      565.0 0.0000E+00 1.3300E+03
       115      570.0 0.0000E+00 1.3300E+03
       116      575.0 0.0000E+00 1.3300E+03
       117      580.0 8.8200E+01 1.7710E+03
       118      585.0 0.0000E+00 1.7710E+03
       119      590.0 0.0000E+00 1.7710E+03
       120      595.0 0.0000E+00 1.7710E+03
       121      600.0 0.0000E+00 1.7710E+03
       122      605.0 0.0000E+00 1.7710E+03
       123      610.0 0.0000E+00 1.7710E+03
       124      615.0 0.0000E+00 1.7710E+03
       125      620.0 0.0000E+00 1.7710E+03
       126      625.0 0.0000E+00 1.7710E+03
       127      630.0 0.0000E+00 1.7710E+03
       128      635.0 0.0000E+00 1.7710E+03
       129      640.0 0.0000E+00 1.7710E+03
       130      645.0 0.0000E+00 1.7710E+03
       131      650.0 0.0000E+00 1.7710E+03
       132      655.0 0.0000E+00 1.7710E+03
       133      660.0 0.0000E+00 1.7710E+03
       134      665.0 0.0000E+00 1.7710E+03
       135      670.0 0.0000E+00 1.7710E+03
       136      675.0 0.0000E+00 1.7710E+03
       137      680.0 0.0000E+00 1.7710E+03
       138      685.0 0.0000E+00 1.7710E+03
       139      690.0 0.0000E+00 1.7710E+03
       140      695.0 1.0580E+02 2.3000E+03
       141      700.0 0.0000E+00 2.3000E+03
       142      705.0 0.0000E+00 2.3000E+03
       143      710.0 0.0000E+00 2.3000E+03
       144      715.0 0.0000E+00 2.3000E+03
       145      720.0 0.0000E+00 2.3000E+03
       146      725.0 0.0000E+00 2.3000E+03
       147      730.0 0.0000E+00 2.3000E+03
       148      735.0 0.0000E+00 2.3000E+03
       149      740.0 0.0000E+00 2.3000E+03
       150      745.0 0.0000E+00 2.3000E+03
       151      750.0 0.0000E+00 2.3000E+03
       152      755.0 0.0000E+00 2.3000E+03
       153      760.0 0.0000E+00 2.3000E+03
       154      765.0 0.0000E+00 2.3000E+03
       155      770.0 0.0000E+00 2.3000E+03
       156      775.0 0.0000E+00 2.3000E+03
       157      780.0 0.0000E+00 2.3000E+03
       158      785.0 0.0000E+00 2.3000E+03
       159      790.0 0.0000E+00 2.3000E+03
       160      795.0 0.0000E+00 2.3000E+03
       161      800.0 0.0000E+00 2.3000E+03
       162      805.0 0.0000E+00 2.3000E+03
       163      810.0 0.0000E+00 2.3000E+03
       164      815.0 0.0000E+00 2.3000E+03
       165      820.0 1.2500E+02 2.9250E+03
       166      825.0 0.0000E+00 2.9250E+03
       167      830.0 0.0000E+00 2.9250E+03
       168      835.0 0.0000E+00 2.9250E+03
       169      840.0 0.0000E+00 2.9250E+03
       170      845.0 0.0000E+00 2.9250E+03
       171      850.0 0.0000E+00 2.9250E+03
       172      855.0 0.0000E+00 2.9250E+03
       173      860.0 0.0000E+00 2.9250E+03
       174      865.0 0.0000E+00 2.9250E+03
       175      870.0 0.0000E+00 2.9250E+03
       176      875.0 0.0000E+00 2.9250E+03
       177      880.0 0.0000E+00 2.9250E+03
       178      885.0 0.0000E+00 2.9250E+03
       179      890.0 0.0000E+00 2.9250E+03
       180      895.0 0.0000E+00 2.9250E+03
       181      900.0 0.0000E+00 2.9250E+03
       182      905.0 0.0000E+00 2.9250E+03
       183      910.0 0.0000E+00 2.9250E+03
       184      915.0 0.0000E+00 2.9250E+03
       185      920.0 0.0000E+00 2.9250E+03
       186      925.0 0.0000E+00 2.9250E+03
       187      930.0 0.0000E+00 2.9250E+03
       188      935.0 0.0000E+00 2.9250E+03
       189      940.0 0.0000E+00 2.9250E+03
       190      945.0 0.0000E+00 2.9250E+03
       191      950.0 0.0000E+00 2.9250E+03
       192      955.0 0.0000E+00 2.9250E+03
       193      960.0 1.4580E+02 3.6540E+03
       194      965.0 0.0000E+00 3.6540E+03
       195      970.0 0.0000E+00 3.6540E+03
       196      975.0 0.0000E+00 3.6540E+03
       197      980.0 0.0000E+00 3.6540E+03
       198      985.0 0.0000E+00 3.6540E+03
       199      990.0 0.0000E+00 3.6540E+03
       200      995.0 0.0000E+00 3.6540E+03
       201     1000.0 0.0000E+00 3.6540E+03
       202     1005.0 0.0000E+00 3.6540E+03
       203     1010.0 0.0000E+00 3.6540E+03
       204     1015.0 0.0000E+00 3.6540E+03
       205     1020.0 0.0000E+00 3.6540E+03
       206     1025.0 0.0000E+00 3.6540E+03
       207     1030.0 0.0000E+00 3.6540E+03
       208     1035.0 0.0000E+00 3.6540E+03
       209     1040.0 0.0000E+00 3.6540E+03
       210     1045.0 0.0000E+00 3.6540E+03
       211     1050.0 0.0000E+00 3.6540E+03
       212     1055.0 0.0000E+00 3.6540E+03
       213     1060.0 0.0000E+00 3.6540E+03
       214     1065.0 0.0000E+00 3.6540E+03
       215     1070.0 0.0000E+00 3.6540E+03
       216     1075.0 0.0000E+00 3.6540E+03
       217     1080.0 0.0000E+00 3.6540E+03
       218     1085.0 0.0000E+00 3.6540E+03
       219     1090.0 0.0000E+00 3.6540E+03
       220     1095.0 0.0000E+00 3.6540E+03
       221     1100.0 0.0000E+00 3.6540E+03
       222     1105.0 1.6820E+02 4.4950E+03
       223     1110.0 0.0000E+00 4.4950E+03
       224     1115.0 0.0000E+00 4.4950E+03
       225     1120.0 0.0000E+00 4.4950E+03
       226     1125.0 0.0000E+00 4.4950E+03
       227     1130.0 0.0000E+00 4.4950E+03
       228     1135.0 0.0000E+00 4.4950E+03
       229     1140.0 0.0000E+00 4.4950E+03
       230     1145.0 0.0000E+00 4.4950E+03
       231     1150.0 0.0000E+00 4.4950E+03
       232     1155.0 0.0000E+00 4.4950E+03
       233     1160.0 0.0000E+00 4.4950E+03
       234     1165.0 0.0000E+00 4.4950E+03
       235     1170.0 0.0000E+00 4.4950E+03
       236     1175.0 0.0000E+00 4.4950E+03
       237     1180.0 0.0000E+00 4.4950E+03
       238     1185.0 0.0000E+00 4.4950E+03
       239     1190.0 0.0000E+00 4.4950E+03
       240     1195.0 0.0000E+00 4.4950E+03
       241     1200.0 0.0000E+00 4.4950E+03
       242     1205.0 0.0000E+00 4.4950E+03
       243     1210.0 0.0000E+00 4.4950E+03
       244     1215.0 0.0000E+00 4.4950E+03
       245     1220.0 0.0000E+00 4.4950E+03
       246     1225.0 0.0000E+00 4.4950E+03
       247     1230.0 0.0000E+00 4.4950E+03
       248     1235.0 0.0000E+00 4.4950E+03
       249     1240.0 0.0000E+00 4.4950E+03
       250     1245.0 0.0000E+00 4.4950E+03
       251     1250.0 0.0000E+00 4.4950E+03
       252     1255.0 0.0000E+00 4.4950E+03
       253     1260.0 0.0000E+00 4.4950E+03
       254     1265.0 1.9220E+02 5.4560E+03
       255     1270.0 0.0000E+00 5.4560E+03
       256     1275.0 0.0000E+00 5.4560E+03
       257     1280.0 0.0000E+00 5.4560E+03
       258     1285.0 0.0000E+00 5.4560E+03
       259     1290.0 0.0000E+00 5.4560E+03
       260     1295.0 0.0000E+00 5.4560E+03
       261     1300.0 0.0000E+00 5.4560E+03
       262     1305.0 0.0000E+00 5.4560E+03
       263     1310.0 0.0000E+00 5.4560E+03
       264     1315.0 0.0000E+00 5.4560E+03
       265     1320.0 6.0000E-01 5.4590E+03
       266     1325.0 0.0000E+00 5.4590E+03
       267     1330.0 5.4000E+00 5.4860E+03
       268     1335.0 0.0000E+00 5.4860E+03
       269     1340.0 0.0000E+00 5.4860E+03
       270     1345.0 0.0000E+00 5.4860E+03
       271     1350.0 1.5000E+01 5.5610E+03
       272     1355.0 0.0000E+00 5.5610E+03
       273     1360.0 0.0000E+00 5.5610E+03
       274     1365.0 0.0000E+00 5.5610E+03
       275     1370.0 0.0000E+00 5.5610E+03
       276     1375.0 0.0000E+00 5.5610E+03
       277     1380.0 0.0000E+00 5.5610E+03
       278     1385.0 2.9400E+01 5.7080E+03
       279     1390.0 0.0000E+00 5.7080E+03
       280     1395.0 0.0000E+00 5.7080E+03
       281     1400.0 0.0000E+00 5.7080E+03
       282     1405.0 0.0000E+00 5.7080E+03
       283     1410.0 0.0000E+00 5.7080E+03
       284     1415.0 0.0000E+00 5.7080E+03
       285     1420.0 0.0000E+00 5.7080E+03
       286     1425.0 4.8600E+01 5.9510E+03
       287     1430.0 0.0000E+00 5.9510E+03
       288     1435.0 2.1780E+02 7.0400E+03
       289     1440.0 0.0000E+00 7.0400E+03
       290     1445.0 0.0000E+00 7.0400E+03
       291     1450.0 0.0000E+00 7.0400E+03
       292     1455.0 0.0000E+00 7.0400E+03
       293     1460.0 0.0000E+00 7.0400E+03
       294     1465.0 0.0000E+00 7.0400E+03
       295     1470.0 0.0000E+00 7.0400E+03
       296     1475.0 0.0000E+00 7.0400E+03
       297     1480.0 7.2600E+01 7.4030E+03
       298     1485.0 0.0000E+00 7.4030E+03
       299     1490.0 0.0000E+00 7.4030E+03
       300     1495.0 0.0000E+00 7.4030E+03
       301     1500.0 0.0000E+00 7.4030E+03
       302     1505.0 0.0000E+00 7.4030E+03
       303     1510.0 0.0000E+00 7.4030E+03
       304     1515.0 0.0000E+00 7.4030E+03
       305     1520.0 0.0000E+00 7.4030E+03
       306     1525.0 0.0000E+00 7.4030E+03
       307     1530.0 0.0000E+00 7.4030E+03
       308     1535.0 0.0000E+00 7.4030E+03
       309     1540.0 1.0160E+02 7.9110E+03
       310     1545.0 0.0000E+00 7.9110E+03
       311     1550.0 1.8000E+00 7.9200E+03
       312     1555.0 0.0000E+00 7.9200E+03
       313     1560.0 0.0000E+00 7.9200E+03
       314     1565.0 0.0000E+00 7.9200E+03
       315     1570.0 5.0000E+00 7.9450E+03
       316     1575.0 0.0000E+00 7.9450E+03
       317     1580.0 2.0000E-01 7.9460E+03
       318     1585.0 0.0000E+00 7.9460E+03
       319     1590.0 1.8000E+00 7.9550E+03
       320     1595.0 0.0000E+00 7.9550E+03
       321     1600.0 0.0000E+00 7.9550E+03
       322     1605.0 9.8000E+00 8.0040E+03
       323     1610.0 2.5000E+02 9.2540E+03
       324     1615.0 1.3500E+02 9.9290E+03
       325     1620.0 0.0000E+00 9.9290E+03
       326     1625.0 0.0000E+00 9.9290E+03
       327     1630.0 0.0000E+00 9.9290E+03
       328     1635.0 0.0000E+00 9.9290E+03
       329     1640.0 0.0000E+00 9.9290E+03
       330     1645.0 2.6000E+01 1.0059E+04
       331     1650.0 0.0000E+00 1.0059E+04
       332     1655.0 0.0000E+00 1.0059E+04
       333     1660.0 0.0000E+00 1.0059E+04
       334     1665.0 0.0000E+00 1.0059E+04
       335     1670.0 0.0000E+00 1.0059E+04
       336     1675.0 0.0000E+00 1.0059E+04
       337     1680.0 0.0000E+00 1.0059E+04
       338     1685.0 1.6200E+01 1.0140E+04
       339     1690.0 0.0000E+00 1.0140E+04
       340     1695.0 0.0000E+00 1.0140E+04
       341     1700.0 1.9760E+02 1.1128E+04
       342     1705.0 0.0000E+00 1.1128E+04
       343     1710.0 0.0000E+00 1.1128E+04
       344     1715.0 0.0000E+00 1.1128E+04
       345     1720.0 0.0000E+00 1.1128E+04
       346     1725.0 0.0000E+00 1.1128E+04
       347     1730.0 0.0000E+00 1.1128E+04
       348     1735.0 0.0000E+00 1.1128E+04
       349     1740.0 2.4200E+01 1.1249E+04
       350     1745.0 0.0000E+00 1.1249E+04
       351     1750.0 0.0000E+00 1.1249E+04
       352     1755.0 0.0000E+00 1.1249E+04
       353     1760.0 3.3800E+01 1.1418E+04
       354     1765.0 0.0000E+00 1.1418E+04
       355     1770.0 0.0000E+00 1.1418E+04
       356     1775.0 0.0000E+00 1.1418E+04
       357     1780.0 0.0000E+00 1.1418E+04
       358     1785.0 0.0000E+00 1.1418E+04
       359     1790.0 0.0000E+00 1.1418E+04
       360     1795.0 2.1660E+02 1.2501E+04
       361     1800.0 3.0760E+02 1.4039E+04
