**************INPUT DATA SUMMARY**************
%%%%%%%%%%%%%%%%%%%%%%%%%%%%%%%%%%%%%%%%%%%%%%%%%%%%%%%%%%%%%%%%%%%%%%%%%%%%%%

                                        John R. Barker
                DenSum-2014.1           University of Michigan
                                        Ann Arbor, MI 48109-2143
                Jun 2014                jrbarker@umich.edu
                                        (734) 763 6239

              http://aoss.engin.umich.edu/multiwell/

%%%%%%%%%%%%%%%%%%%%%%%%%%%%%%%%%%%%%%%%%%%%%%%%%%%%%%%%%%%%%%%%%%%%%%%%%%%%%%

        Suggested Literature Citation:

        a) MultiWell-2014.1 Software, Jun 2014, designed and
           maintained by J.R. Barker with contributors N.F. Ortiz,
           J.M. Preses, L.L. Lohr, A. Maranzana, P.J. Stimac, T. L.
           Nguyen, and T. J. Dhilip Kumar, University of Michigan,
           Ann Arbor, MI; http://aoss.engin.umich.edu/multiwell/

        b) J.R. Barker, Int. J. Chem. Kinetics, 33, 232-45 (2001)



%%%%%%%%%%%%%%%%%%%%%%%%%%%%%%%%%%%%%%%%%%%%%%%%%%%%%%%%%%%%%%%%%%%%%%%%%%%%%%


....................................................
          2014/11/11   10:09:40.995   (Local Time)
          year/mm/dd   hr:mi:second
                 CPU :        0.002 s (  0.000 hr)
....................................................


Degrees of Freedom

    1  Vibrator  Freq(0-1)= 3428.00  Freq(har)= 3428.00  Anh(cm-1)=    0.00  g = 1
    2  Vibrator  Freq(0-1)= 3332.00  Freq(har)= 3332.00  Anh(cm-1)=    0.00  g = 1
    3  Vibrator  Freq(0-1)= 1875.00  Freq(har)= 1875.00  Anh(cm-1)=    0.00  g = 1
    4  Vibrator  Freq(0-1)= 1710.00  Freq(har)= 1710.00  Anh(cm-1)=    0.00  g = 1
    5  Vibrator  Freq(0-1)= 1617.00  Freq(har)= 1617.00  Anh(cm-1)=    0.00  g = 1
    6  Vibrator  Freq(0-1)= 1552.00  Freq(har)= 1552.00  Anh(cm-1)=    0.00  g = 1
    7  Vibrator  Freq(0-1)= 1452.00  Freq(har)= 1452.00  Anh(cm-1)=    0.00  g = 1
    8  Vibrator  Freq(0-1)= 1128.00  Freq(har)= 1128.00  Anh(cm-1)=    0.00  g = 1
    9  Vibrator  Freq(0-1)= 1023.00  Freq(har)= 1023.00  Anh(cm-1)=    0.00  g = 1
   10  Vibrator  Freq(0-1)=  971.00  Freq(har)=  971.00  Anh(cm-1)=    0.00  g = 1
   11  Vibrator  Freq(0-1)=  796.00  Freq(har)=  796.00  Anh(cm-1)=    0.00  g = 1
   12  Vibrator  Freq(0-1)=  656.00  Freq(har)=  656.00  Anh(cm-1)=    0.00  g = 1
   13  Vibrator  Freq(0-1)=  524.00  Freq(har)=  524.00  Anh(cm-1)=    0.00  g = 1
   14  Vibrator  Freq(0-1)=  507.00  Freq(har)=  507.00  Anh(cm-1)=    0.00  g = 1
   15  Vibrator  Freq(0-1)=  428.00  Freq(har)=  428.00  Anh(cm-1)=    0.00  g = 1
   16  Vibrator  Freq(0-1)=  298.00  Freq(har)=  298.00  Anh(cm-1)=    0.00  g = 1
   17  Vibrator  Freq(0-1)=  260.00  Freq(har)=  260.00  Anh(cm-1)=    0.00  g = 1
   18  Quan.Rot  AmuAng^2 =   89.44  Symm =  1.   dim = 1  B =  0.1885 cm-1
**************INPUT DATA SUMMARY**************
 TS-C2H3F3_
TS-C2H3F3 transition state                        
       10.0        500   100000.0       1000      260.0
       No.    E(cm-1)    Density    Sum   [Energy at TOP of energy grains]
         1        0.0  1.10000E+00  1.10000E+01
         2       10.0  6.00000E-01  1.70000E+01
         3       20.0  6.00000E-01  2.30000E+01
         4       30.0  4.00000E-01  2.70000E+01
         5       40.0  4.00000E-01  3.10000E+01
         6       50.0  4.00000E-01  3.50000E+01
         7       60.0  2.00000E-01  3.70000E+01
         8       70.0  2.00000E-01  3.90000E+01
         9       80.0  4.00000E-01  4.30000E+01
        10       90.0  2.00000E-01  4.50000E+01
        11      100.0  2.00000E-01  4.70000E+01
        12      110.0  2.00000E-01  4.90000E+01
        13      120.0  2.00000E-01  5.10000E+01
        14      130.0  2.00000E-01  5.30000E+01
        15      140.0  2.00000E-01  5.50000E+01
        16      150.0  2.00000E-01  5.70000E+01
        17      160.0  2.00000E-01  5.90000E+01
        18      170.0  2.00000E-01  6.10000E+01
        19      180.0  2.00000E-01  6.30000E+01
        20      190.0  2.00000E-01  6.50000E+01
        21      200.0  0.00000E+00  6.50000E+01
        22      210.0  2.00000E-01  6.70000E+01
        23      220.0  2.00000E-01  6.90000E+01
        24      230.0  2.00000E-01  7.10000E+01
        25      240.0  2.00000E-01  7.30000E+01
        26      250.0  0.00000E+00  7.30000E+01
        27      260.0  1.30000E+00  8.60000E+01
        28      270.0  8.00000E-01  9.40000E+01
        29      280.0  6.00000E-01  1.00000E+02
        30      290.0  6.00000E-01  1.06000E+02
        31      300.0  1.70000E+00  1.23000E+02
        32      310.0  1.00000E+00  1.33000E+02
        33      320.0  1.00000E+00  1.43000E+02
        34      330.0  8.00000E-01  1.51000E+02
        35      340.0  8.00000E-01  1.59000E+02
        36      350.0  8.00000E-01  1.67000E+02
        37      360.0  6.00000E-01  1.73000E+02
        38      370.0  4.00000E-01  1.77000E+02
        39      380.0  8.00000E-01  1.85000E+02
        40      390.0  4.00000E-01  1.89000E+02
        41      400.0  6.00000E-01  1.95000E+02
        42      410.0  4.00000E-01  1.99000E+02
        43      420.0  6.00000E-01  2.05000E+02
        44      430.0  1.70000E+00  2.22000E+02
        45      440.0  1.00000E+00  2.32000E+02
        46      450.0  1.20000E+00  2.44000E+02
        47      460.0  6.00000E-01  2.50000E+02
        48      470.0  1.00000E+00  2.60000E+02
        49      480.0  8.00000E-01  2.68000E+02
        50      490.0  8.00000E-01  2.76000E+02
        51      500.0  4.00000E-01  2.80000E+02
        52      510.0  1.90000E+00  2.99000E+02
        53      520.0  3.40000E+00  3.33000E+02
        54      530.0  2.60000E+00  3.59000E+02
        55      540.0  2.00000E+00  3.79000E+02
        56      550.0  1.80000E+00  3.97000E+02
        57      560.0  2.90000E+00  4.26000E+02
        58      570.0  2.20000E+00  4.48000E+02
        59      580.0  1.60000E+00  4.64000E+02
        60      590.0  2.00000E+00  4.84000E+02
        61      600.0  2.90000E+00  5.13000E+02
        62      610.0  2.20000E+00  5.35000E+02
        63      620.0  2.00000E+00  5.55000E+02
        64      630.0  1.60000E+00  5.71000E+02
        65      640.0  1.80000E+00  5.89000E+02
        66      650.0  1.60000E+00  6.05000E+02
        67      660.0  2.90000E+00  6.34000E+02
        68      670.0  1.80000E+00  6.52000E+02
        69      680.0  2.40000E+00  6.76000E+02
        70      690.0  2.90000E+00  7.05000E+02
        71      700.0  2.60000E+00  7.31000E+02
        72      710.0  2.00000E+00  7.51000E+02
        73      720.0  1.80000E+00  7.69000E+02
        74      730.0  3.30000E+00  8.02000E+02
        75      740.0  2.40000E+00  8.26000E+02
        76      750.0  2.80000E+00  8.54000E+02
        77      760.0  1.60000E+00  8.70000E+02
        78      770.0  3.30000E+00  9.03000E+02
        79      780.0  4.80000E+00  9.51000E+02
        80      790.0  3.80000E+00  9.89000E+02
        81      800.0  3.90000E+00  1.02800E+03
        82      810.0  5.10000E+00  1.07900E+03
        83      820.0  6.20000E+00  1.14100E+03
        84      830.0  5.00000E+00  1.19100E+03
        85      840.0  4.00000E+00  1.23100E+03
        86      850.0  4.40000E+00  1.27500E+03
        87      860.0  5.80000E+00  1.33300E+03
        88      870.0  5.00000E+00  1.38300E+03
        89      880.0  4.20000E+00  1.42500E+03
        90      890.0  4.90000E+00  1.47400E+03
        91      900.0  4.80000E+00  1.52200E+03
        92      910.0  3.80000E+00  1.56000E+03
        93      920.0  5.30000E+00  1.61300E+03
        94      930.0  3.80000E+00  1.65100E+03
        95      940.0  5.70000E+00  1.70800E+03
        96      950.0  6.60000E+00  1.77400E+03
        97      960.0  7.10000E+00  1.84500E+03
        98      970.0  6.30000E+00  1.90800E+03
        99      980.0  6.00000E+00  1.96800E+03
       100      990.0  6.70000E+00  2.03500E+03
       101     1000.0  5.80000E+00  2.09300E+03
       102     1010.0  6.30000E+00  2.15600E+03
       103     1020.0  6.50000E+00  2.22100E+03
       104     1030.0  9.50000E+00  2.31600E+03
       105     1040.0  9.60000E+00  2.41200E+03
       106     1050.0  9.50000E+00  2.50700E+03
       107     1060.0  8.50000E+00  2.59200E+03
       108     1070.0  9.30000E+00  2.68500E+03
       109     1080.0  1.00000E+01  2.78500E+03
       110     1090.0  1.01000E+01  2.88600E+03
       111     1100.0  9.10000E+00  2.97700E+03
       112     1110.0  1.05000E+01  3.08200E+03
       113     1120.0  1.17000E+01  3.19900E+03
       114     1130.0  1.19000E+01  3.31800E+03
       115     1140.0  8.80000E+00  3.40600E+03
       116     1150.0  1.07000E+01  3.51300E+03
       117     1160.0  1.01000E+01  3.61400E+03
       118     1170.0  9.90000E+00  3.71300E+03
       119     1180.0  1.24000E+01  3.83700E+03
       120     1190.0  1.05000E+01  3.94200E+03
       121     1200.0  1.17000E+01  4.05900E+03
       122     1210.0  1.24000E+01  4.18300E+03
       123     1220.0  1.21000E+01  4.30400E+03
       124     1230.0  1.20000E+01  4.42400E+03
       125     1240.0  1.29000E+01  4.55300E+03
       126     1250.0  1.34000E+01  4.68700E+03
       127     1260.0  1.29000E+01  4.81600E+03
       128     1270.0  1.40000E+01  4.95600E+03
       129     1280.0  1.42000E+01  5.09800E+03
       130     1290.0  1.63000E+01  5.26100E+03
       131     1300.0  1.58000E+01  5.41900E+03
       132     1310.0  1.84000E+01  5.60300E+03
       133     1320.0  1.96000E+01  5.79900E+03
       134     1330.0  1.96000E+01  5.99500E+03
       135     1340.0  1.86000E+01  6.18100E+03
       136     1350.0  1.94000E+01  6.37500E+03
       137     1360.0  1.77000E+01  6.55200E+03
       138     1370.0  1.90000E+01  6.74200E+03
       139     1380.0  2.00000E+01  6.94200E+03
       140     1390.0  2.18000E+01  7.16000E+03
       141     1400.0  2.01000E+01  7.36100E+03
       142     1410.0  2.18000E+01  7.57900E+03
       143     1420.0  1.95000E+01  7.77400E+03
       144     1430.0  2.06000E+01  7.98000E+03
       145     1440.0  2.15000E+01  8.19500E+03
       146     1450.0  2.25000E+01  8.42000E+03
       147     1460.0  2.50000E+01  8.67000E+03
       148     1470.0  2.41000E+01  8.91100E+03
       149     1480.0  2.74000E+01  9.18500E+03
       150     1490.0  2.62000E+01  9.44700E+03
       151     1500.0  2.59000E+01  9.70600E+03
       152     1510.0  2.42000E+01  9.94800E+03
       153     1520.0  2.61000E+01  1.02090E+04
       154     1530.0  2.85000E+01  1.04940E+04
       155     1540.0  3.00000E+01  1.07940E+04
       156     1550.0  3.26000E+01  1.11200E+04
       157     1560.0  3.24000E+01  1.14440E+04
       158     1570.0  3.48000E+01  1.17920E+04
       159     1580.0  3.63000E+01  1.21550E+04
       160     1590.0  3.37000E+01  1.24920E+04
       161     1600.0  3.39000E+01  1.28310E+04
       162     1610.0  3.82000E+01  1.32130E+04
       163     1620.0  3.75000E+01  1.35880E+04
       164     1630.0  3.86000E+01  1.39740E+04
       165     1640.0  3.93000E+01  1.43670E+04
       166     1650.0  3.92000E+01  1.47590E+04
       167     1660.0  3.86000E+01  1.51450E+04
       168     1670.0  4.10000E+01  1.55550E+04
       169     1680.0  3.71000E+01  1.59260E+04
       170     1690.0  4.15000E+01  1.63410E+04
       171     1700.0  4.23000E+01  1.67640E+04
       172     1710.0  4.51000E+01  1.72150E+04
       173     1720.0  4.44000E+01  1.76590E+04
       174     1730.0  4.42000E+01  1.81010E+04
       175     1740.0  4.75000E+01  1.85760E+04
       176     1750.0  5.00000E+01  1.90760E+04
       177     1760.0  4.91000E+01  1.95670E+04
       178     1770.0  4.56000E+01  2.00230E+04
       179     1780.0  5.06000E+01  2.05290E+04
       180     1790.0  5.49000E+01  2.10780E+04
       181     1800.0  5.29000E+01  2.16070E+04
       182     1810.0  5.51000E+01  2.21580E+04
       183     1820.0  5.78000E+01  2.27360E+04
       184     1830.0  6.45000E+01  2.33810E+04
       185     1840.0  6.49000E+01  2.40300E+04
       186     1850.0  6.20000E+01  2.46500E+04
       187     1860.0  6.22000E+01  2.52720E+04
       188     1870.0  6.64000E+01  2.59360E+04
       189     1880.0  6.81000E+01  2.66170E+04
       190     1890.0  6.69000E+01  2.72860E+04
       191     1900.0  6.83000E+01  2.79690E+04
       192     1910.0  7.28000E+01  2.86970E+04
       193     1920.0  7.25000E+01  2.94220E+04
       194     1930.0  7.38000E+01  3.01600E+04
       195     1940.0  7.05000E+01  3.08650E+04
       196     1950.0  7.37000E+01  3.16020E+04
       197     1960.0  7.59000E+01  3.23610E+04
       198     1970.0  8.29000E+01  3.31900E+04
       199     1980.0  8.32000E+01  3.40220E+04
       200     1990.0  8.37000E+01  3.48590E+04
       201     2000.0  8.77000E+01  3.57360E+04
       202     2010.0  9.10000E+01  3.66460E+04
       203     2020.0  8.64000E+01  3.75100E+04
       204     2030.0  8.43000E+01  3.83530E+04
       205     2040.0  9.17000E+01  3.92700E+04
       206     2050.0  9.86000E+01  4.02560E+04
       207     2060.0  9.89000E+01  4.12450E+04
       208     2070.0  1.01000E+02  4.22550E+04
       209     2080.0  1.03300E+02  4.32880E+04
       210     2090.0  1.11300E+02  4.44010E+04
       211     2100.0  1.11400E+02  4.55150E+04
       212     2110.0  1.08100E+02  4.65960E+04
       213     2120.0  1.12800E+02  4.77240E+04
       214     2130.0  1.17900E+02  4.89030E+04
       215     2140.0  1.22700E+02  5.01300E+04
       216     2150.0  1.21600E+02  5.13460E+04
       217     2160.0  1.21300E+02  5.25590E+04
       218     2170.0  1.23900E+02  5.37980E+04
       219     2180.0  1.29500E+02  5.50930E+04
       220     2190.0  1.26700E+02  5.63600E+04
       221     2200.0  1.26700E+02  5.76270E+04
       222     2210.0  1.31300E+02  5.89400E+04
       223     2220.0  1.36700E+02  6.03070E+04
       224     2230.0  1.41600E+02  6.17230E+04
       225     2240.0  1.42900E+02  6.31520E+04
       226     2250.0  1.44000E+02  6.45920E+04
       227     2260.0  1.52100E+02  6.61130E+04
       228     2270.0  1.54400E+02  6.76570E+04
       229     2280.0  1.54700E+02  6.92040E+04
       230     2290.0  1.51900E+02  7.07230E+04
       231     2300.0  1.61000E+02  7.23330E+04
       232     2310.0  1.67400E+02  7.40070E+04
       233     2320.0  1.67900E+02  7.56860E+04
       234     2330.0  1.72200E+02  7.74080E+04
       235     2340.0  1.78000E+02  7.91880E+04
       236     2350.0  1.86600E+02  8.10540E+04
       237     2360.0  1.87900E+02  8.29330E+04
       238     2370.0  1.89200E+02  8.48250E+04
       239     2380.0  1.90600E+02  8.67310E+04
       240     2390.0  1.96400E+02  8.86950E+04
       241     2400.0  2.05500E+02  9.07500E+04
       242     2410.0  2.07900E+02  9.28290E+04
       243     2420.0  2.07700E+02  9.49060E+04
       244     2430.0  2.13400E+02  9.70400E+04
       245     2440.0  2.19900E+02  9.92390E+04
       246     2450.0  2.19200E+02  1.01431E+05
       247     2460.0  2.19300E+02  1.03624E+05
       248     2470.0  2.22200E+02  1.05846E+05
       249     2480.0  2.33000E+02  1.08176E+05
       250     2490.0  2.41900E+02  1.10595E+05
       251     2500.0  2.44300E+02  1.13038E+05
       252     2510.0  2.47800E+02  1.15516E+05
       253     2520.0  2.56600E+02  1.18082E+05
       254     2530.0  2.58200E+02  1.20664E+05
       255     2540.0  2.62200E+02  1.23286E+05
       256     2550.0  2.61700E+02  1.25903E+05
       257     2560.0  2.72200E+02  1.28625E+05
       258     2570.0  2.82100E+02  1.31446E+05
       259     2580.0  2.91000E+02  1.34356E+05
       260     2590.0  2.93500E+02  1.37291E+05
       261     2600.0  2.99400E+02  1.40285E+05
       262     2610.0  3.08800E+02  1.43373E+05
       263     2620.0  3.11900E+02  1.46492E+05
       264     2630.0  3.18300E+02  1.49675E+05
       265     2640.0  3.21000E+02  1.52885E+05
       266     2650.0  3.28500E+02  1.56170E+05
       267     2660.0  3.40300E+02  1.59573E+05
       268     2670.0  3.46400E+02  1.63037E+05
       269     2680.0  3.47800E+02  1.66515E+05
       270     2690.0  3.52800E+02  1.70043E+05
       271     2700.0  3.60100E+02  1.73644E+05
       272     2710.0  3.68000E+02  1.77324E+05
       273     2720.0  3.67600E+02  1.81000E+05
       274     2730.0  3.73600E+02  1.84736E+05
       275     2740.0  3.87400E+02  1.88610E+05
       276     2750.0  3.94800E+02  1.92558E+05
       277     2760.0  4.06500E+02  1.96623E+05
       278     2770.0  4.10400E+02  2.00727E+05
       279     2780.0  4.18300E+02  2.04910E+05
       280     2790.0  4.22100E+02  2.09131E+05
       281     2800.0  4.38300E+02  2.13514E+05
       282     2810.0  4.34200E+02  2.17856E+05
       283     2820.0  4.42800E+02  2.22284E+05
       284     2830.0  4.58600E+02  2.26870E+05
       285     2840.0  4.76300E+02  2.31633E+05
       286     2850.0  4.77700E+02  2.36410E+05
       287     2860.0  4.90000E+02  2.41310E+05
       288     2870.0  4.97400E+02  2.46284E+05
       289     2880.0  5.10900E+02  2.51393E+05
       290     2890.0  5.18900E+02  2.56582E+05
       291     2900.0  5.21800E+02  2.61800E+05
       292     2910.0  5.32400E+02  2.67124E+05
       293     2920.0  5.54100E+02  2.72665E+05
       294     2930.0  5.59000E+02  2.78255E+05
       295     2940.0  5.68300E+02  2.83938E+05
       296     2950.0  5.75500E+02  2.89693E+05
       297     2960.0  5.79700E+02  2.95490E+05
       298     2970.0  5.97100E+02  3.01461E+05
       299     2980.0  5.99700E+02  3.07458E+05
       300     2990.0  6.07300E+02  3.13531E+05
       301     3000.0  6.26800E+02  3.19799E+05
       302     3010.0  6.44100E+02  3.26240E+05
       303     3020.0  6.56300E+02  3.32803E+05
       304     3030.0  6.66900E+02  3.39472E+05
       305     3040.0  6.75100E+02  3.46223E+05
       306     3050.0  6.79300E+02  3.53016E+05
       307     3060.0  7.07100E+02  3.60087E+05
       308     3070.0  7.08000E+02  3.67167E+05
       309     3080.0  7.16500E+02  3.74332E+05
       310     3090.0  7.38700E+02  3.81719E+05
       311     3100.0  7.66200E+02  3.89381E+05
       312     3110.0  7.72100E+02  3.97102E+05
       313     3120.0  7.84500E+02  4.04947E+05
       314     3130.0  7.92200E+02  4.12869E+05
       315     3140.0  8.19300E+02  4.21062E+05
       316     3150.0  8.27400E+02  4.29336E+05
       317     3160.0  8.37900E+02  4.37715E+05
       318     3170.0  8.51400E+02  4.46229E+05
       319     3180.0  8.78000E+02  4.55009E+05
       320     3190.0  8.93300E+02  4.63942E+05
       321     3200.0  9.06500E+02  4.73007E+05
       322     3210.0  9.12700E+02  4.82134E+05
       323     3220.0  9.22800E+02  4.91362E+05
       324     3230.0  9.53000E+02  5.00892E+05
       325     3240.0  9.55400E+02  5.10446E+05
       326     3250.0  9.72700E+02  5.20173E+05
       327     3260.0  9.91000E+02  5.30083E+05
       328     3270.0  1.01830E+03  5.40266E+05
       329     3280.0  1.04050E+03  5.50671E+05
       330     3290.0  1.05570E+03  5.61228E+05
       331     3300.0  1.06000E+03  5.71828E+05
       332     3310.0  1.07990E+03  5.82627E+05
       333     3320.0  1.11020E+03  5.93729E+05
       334     3330.0  1.11860E+03  6.04915E+05
       335     3340.0  1.13510E+03  6.16266E+05
       336     3350.0  1.16420E+03  6.27908E+05
       337     3360.0  1.19280E+03  6.39836E+05
       338     3370.0  1.21630E+03  6.51999E+05
       339     3380.0  1.23520E+03  6.64351E+05
       340     3390.0  1.23750E+03  6.76726E+05
       341     3400.0  1.28100E+03  6.89536E+05
       342     3410.0  1.29470E+03  7.02483E+05
       343     3420.0  1.31830E+03  7.15666E+05
       344     3430.0  1.33970E+03  7.29063E+05
       345     3440.0  1.37160E+03  7.42779E+05
       346     3450.0  1.38770E+03  7.56656E+05
       347     3460.0  1.42470E+03  7.70903E+05
       348     3470.0  1.42310E+03  7.85134E+05
       349     3480.0  1.43760E+03  7.99510E+05
       350     3490.0  1.48370E+03  8.14347E+05
       351     3500.0  1.49780E+03  8.29325E+05
       352     3510.0  1.52110E+03  8.44536E+05
