**************INPUT DATA SUMMARY**************
%%%%%%%%%%%%%%%%%%%%%%%%%%%%%%%%%%%%%%%%%%%%%%%%%%%%%%%%%%%%%%%%%%%%%%%%%%%%%%

                                        John R. Barker
                DenSum-2022             University of Michigan
                                        Ann Arbor, MI 48109-2143
                Jan 2022                jrbarker@umich.edu
                                        (734) 763 6239

              http://clasp-research.engin.umich.edu/multiwell/

%%%%%%%%%%%%%%%%%%%%%%%%%%%%%%%%%%%%%%%%%%%%%%%%%%%%%%%%%%%%%%%%%%%%%%%%%%%%%%

        Suggested Literature Citations:

    a) J.R. Barker, T.L. Nguyen, J.F. Stanton, C. Aieta, M. Ceotto,
       F. Gabas, T.J.D. Kumar, C.G.L.Li, L.L.Lohr, A. Maranzana,
       N.F. Ortiz, J.M. Preses, J.M. Simmie, J.A. Sonk, and P.J. Stimac; 
       MultiWell-2022    Software Suite; University of Michigan, 
       Ann Arbor, Michigan, USA, Jan 2022; 
       http://clasp-research.engin.umich.edu/multiwell/.

    b) J.R. Barker, Int. J. Chem. Kinetics, 33, 232-45 (2001)

%%%%%%%%%%%%%%%%%%%%%%%%%%%%%%%%%%%%%%%%%%%%%%%%%%%%%%%%%%%%%%%%%%%%%%%%%%%%%%


....................................................
          2022/07/01   08:36:08.546   (Local Time)
          year/mm/dd   hr:mi:second
                 CPU :        0.005 s (  0.000 hr)
....................................................


Degrees of Freedom

  1  Vibrator: Fund=  3416.90  Harm=  3598.70  Anh(cm-1)=  -90.90  g=  1
  2  Vibrator: Fund=  1367.50  Harm=  1387.50  Anh(cm-1)=  -10.00  g=  1
  3  Vibrator: Fund=   855.00  Harm=   875.00  Anh(cm-1)=  -10.00  g=  1
  4  General Hind.Rot:  Vhr_Type = VHRD2; Bhr/Ihr_Type = BHRD1
     Vhr:  Symm. =  1  Phase (rad.) =  0.0000  Coeff. (cm-1) =   645.1000  1036.9700   657.5300    50.8900     2.5240
     Bhr:  Symm. =  1  Phase (rad.) =  0.0000  Coeff. (cm-1) =    39.3754
  5  Vibrator: Fund=  3430.30  Harm=  3610.70  Anh(cm-1)=  -90.20  g=  1
  6  Vibrator: Fund=  1260.00  Harm=  1266.00  Anh(cm-1)=   -3.00  g=  1
  7  Symm-Top  2D-Moment =   19.70 amua, B2 =  0.8556 cm-1  ;  1D-Moment =    1.67 amua, B1 = 10.0697 cm-1  ;  Symm. No. = 1
  8  Quan.Rot  AmuAng^2 =   16.86  Symm =  1.   dim = 1  B =  1.0000 cm-1
  9  Vibrator: Fund=  1002.00  Harm=  1000.00  Anh(cm-1)=    1.00  g=  1
 10  P-in-Box  Freq(0-1)=    3.00  Freq.Param.=    1.00  g = 1
**************INPUT DATA SUMMARY**************
 H2O2
H2O2 [Dorofeeva et al. J. Phys. Chem. Ref. Data 32
        5.0       3000    80000.0       4000        1.0
       No.    E-Emin     Density     Sum   [Emin =    0.0 cm-1; E at TOP of energy grains]
         1        0.0  3.00000E+00  1.50000E+01
         2        5.0  8.00000E+00  5.50000E+01
         3       10.0  2.28000E+01  1.69000E+02
         4       15.0  4.84000E+01  4.11000E+02
         5       20.0  8.04000E+01  8.13000E+02
         6       25.0  1.36800E+02  1.49700E+03
         7       30.0  1.74000E+02  2.36700E+03
         8       35.0  2.44400E+02  3.58900E+03
         9       40.0  2.90200E+02  5.04000E+03
        10       45.0  3.49200E+02  6.78600E+03
        11       50.0  4.41800E+02  8.99500E+03
        12       55.0  4.76800E+02  1.13790E+04
        13       60.0  6.21600E+02  1.44870E+04
        14       65.0  6.34800E+02  1.76610E+04
        15       70.0  7.79200E+02  2.15570E+04
        16       75.0  8.31000E+02  2.57120E+04
        17       80.0  9.08000E+02  3.02520E+04
        18       85.0  1.05960E+03  3.55500E+04
        19       90.0  1.06640E+03  4.08820E+04
        20       95.0  1.24120E+03  4.70880E+04
        21      100.0  1.27840E+03  5.34800E+04
        22      105.0  1.40120E+03  6.04860E+04
        23      110.0  1.52820E+03  6.81270E+04
        24      115.0  1.61060E+03  7.61800E+04
        25      120.0  1.79900E+03  8.51750E+04
        26      125.0  1.91780E+03  9.47640E+04
        27      130.0  2.00020E+03  1.04765E+05
        28      135.0  2.29480E+03  1.16239E+05
        29      140.0  2.16800E+03  1.27079E+05
        30      145.0  2.51100E+03  1.39634E+05
        31      150.0  2.45760E+03  1.51922E+05
        32      155.0  2.66200E+03  1.65232E+05
        33      160.0  2.78220E+03  1.79143E+05
        34      165.0  2.86040E+03  1.93445E+05
        35      170.0  3.16680E+03  2.09279E+05
        36      175.0  3.03980E+03  2.24478E+05
        37      180.0  3.54780E+03  2.42217E+05
        38      185.0  3.40840E+03  2.59259E+05
        39      190.0  3.70680E+03  2.77793E+05
        40      195.0  3.81680E+03  2.96877E+05
        41      200.0  4.01280E+03  3.16941E+05
        42      205.0  4.13740E+03  3.37628E+05
        43      210.0  4.32560E+03  3.59256E+05
        44      215.0  4.47620E+03  3.81637E+05
        45      220.0  4.69540E+03  4.05114E+05
        46      225.0  4.68000E+03  4.28514E+05
        47      230.0  5.26560E+03  4.54842E+05
        48      235.0  4.90280E+03  4.79356E+05
        49      240.0  5.34860E+03  5.06099E+05
        50      245.0  5.52220E+03  5.33710E+05
        51      250.0  5.53160E+03  5.61368E+05
        52      255.0  6.06680E+03  5.91702E+05
        53      260.0  5.71680E+03  6.20286E+05
        54      265.0  6.49620E+03  6.52767E+05
        55      270.0  5.84100E+03  6.81972E+05
        56      275.0  7.03540E+03  7.17149E+05
        57      280.0  6.76480E+03  7.50973E+05
        58      285.0  6.94020E+03  7.85674E+05
        59      290.0  7.50640E+03  8.23206E+05
        60      295.0  7.19480E+03  8.59180E+05
        61      300.0  7.77860E+03  8.98073E+05
        62      305.0  8.06860E+03  9.38416E+05
        63      310.0  7.98980E+03  9.78365E+05
        64      315.0  8.79620E+03  1.02235E+06
        65      320.0  8.39460E+03  1.06432E+06
        66      325.0  9.14020E+03  1.11002E+06
        67      330.0  9.25480E+03  1.15629E+06
        68      335.0  8.76100E+03  1.20010E+06
        69      340.0  1.03818E+04  1.25201E+06
        70      345.0  9.27780E+03  1.29840E+06
        71      350.0  1.06890E+04  1.35184E+06
        72      355.0  1.00622E+04  1.40215E+06
        73      360.0  1.06278E+04  1.45529E+06
        74      365.0  1.07032E+04  1.50881E+06
        75      370.0  1.12242E+04  1.56493E+06
        76      375.0  1.17454E+04  1.62366E+06
        77      380.0  1.14196E+04  1.68075E+06
        78      385.0  1.24646E+04  1.74308E+06
        79      390.0  1.21022E+04  1.80359E+06
        80      395.0  1.32800E+04  1.86999E+06
        81      400.0  1.26442E+04  1.93321E+06
        82      405.0  1.33710E+04  2.00006E+06
        83      410.0  1.36926E+04  2.06853E+06
        84      415.0  1.36404E+04  2.13673E+06
        85      420.0  1.51174E+04  2.21232E+06
        86      425.0  1.48230E+04  2.28643E+06
        87      430.0  1.43546E+04  2.35820E+06
        88      435.0  1.61292E+04  2.43885E+06
        89      440.0  1.47962E+04  2.51283E+06
        90      445.0  1.70788E+04  2.59822E+06
        91      450.0  1.64900E+04  2.68068E+06
        92      455.0  1.67934E+04  2.76464E+06
        93      460.0  1.79982E+04  2.85463E+06
        94      465.0  1.63832E+04  2.93655E+06
        95      470.0  1.88366E+04  3.03073E+06
        96      475.0  1.79370E+04  3.12042E+06
        97      480.0  1.84508E+04  3.21267E+06
        98      485.0  1.96480E+04  3.31091E+06
        99      490.0  1.92086E+04  3.40695E+06
       100      495.0  1.99452E+04  3.50668E+06
       101      500.0  2.05058E+04  3.60921E+06
       102      505.0  2.07662E+04  3.71304E+06
       103      510.0  2.12702E+04  3.81939E+06
       104      515.0  2.09312E+04  3.92405E+06
       105      520.0  2.22242E+04  4.03517E+06
       106      525.0  2.15404E+04  4.14287E+06
       107      530.0  2.38402E+04  4.26207E+06
       108      535.0  2.25418E+04  4.37478E+06
       109      540.0  2.48096E+04  4.49883E+06
       110      545.0  2.29692E+04  4.61367E+06
       111      550.0  2.43040E+04  4.73519E+06
       112      555.0  2.55870E+04  4.86313E+06
       113      560.0  2.42950E+04  4.98460E+06
       114      565.0  2.74610E+04  5.12191E+06
       115      570.0  2.59314E+04  5.25157E+06
       116      575.0  2.71406E+04  5.38727E+06
       117      580.0  2.70600E+04  5.52257E+06
       118      585.0  2.71776E+04  5.65846E+06
       119      590.0  2.82092E+04  5.79950E+06
       120      595.0  2.91454E+04  5.94523E+06
       121      600.0  2.86510E+04  6.08848E+06
       122      605.0  3.08464E+04  6.24272E+06
       123      610.0  2.82704E+04  6.38407E+06
       124      615.0  3.23486E+04  6.54581E+06
       125      620.0  3.03304E+04  6.69746E+06
       126      625.0  3.18786E+04  6.85686E+06
       127      630.0  3.19828E+04  7.01677E+06
       128      635.0  3.21496E+04  7.17752E+06
       129      640.0  3.42278E+04  7.34866E+06
       130      645.0  3.35954E+04  7.51664E+06
       131      650.0  3.55288E+04  7.69428E+06
       132      655.0  3.25260E+04  7.85691E+06
       133      660.0  3.58206E+04  8.03601E+06
       134      665.0  3.60712E+04  8.21637E+06
       135      670.0  3.74208E+04  8.40347E+06
       136      675.0  3.78974E+04  8.59296E+06
       137      680.0  3.72752E+04  8.77934E+06
       138      685.0  3.74956E+04  8.96681E+06
       139      690.0  3.82276E+04  9.15795E+06
       140      695.0  3.94548E+04  9.35522E+06
       141      700.0  4.10740E+04  9.56060E+06
       142      705.0  3.94752E+04  9.75797E+06
       143      710.0  4.27440E+04  9.97169E+06
       144      715.0  4.15878E+04  1.01796E+07
       145      720.0  4.15270E+04  1.03873E+07
       146      725.0  4.27750E+04  1.06011E+07
       147      730.0  4.29344E+04  1.08158E+07
       148      735.0  4.48300E+04  1.10400E+07
       149      740.0  4.46696E+04  1.12633E+07
       150      745.0  4.64008E+04  1.14953E+07
       151      750.0  4.48276E+04  1.17195E+07
       152      755.0  4.70264E+04  1.19546E+07
       153      760.0  4.72360E+04  1.21908E+07
       154      765.0  4.79636E+04  1.24306E+07
       155      770.0  4.83314E+04  1.26722E+07
       156      775.0  4.80652E+04  1.29126E+07
       157      780.0  5.11154E+04  1.31681E+07
       158      785.0  5.11112E+04  1.34237E+07
       159      790.0  5.06050E+04  1.36767E+07
       160      795.0  5.20598E+04  1.39370E+07
       161      800.0  5.01630E+04  1.41878E+07
       162      805.0  5.40570E+04  1.44581E+07
       163      810.0  5.42246E+04  1.47292E+07
       164      815.0  5.55468E+04  1.50070E+07
       165      820.0  5.68442E+04  1.52912E+07
       166      825.0  5.34762E+04  1.55586E+07
       167      830.0  5.77838E+04  1.58475E+07
       168      835.0  5.58340E+04  1.61267E+07
       169      840.0  5.73082E+04  1.64132E+07
       170      845.0  5.98846E+04  1.67126E+07
       171      850.0  5.95088E+04  1.70102E+07
       172      855.0  6.10660E+04  1.73155E+07
       173      860.0  6.16938E+04  1.76240E+07
       174      865.0  6.16598E+04  1.79323E+07
       175      870.0  6.24436E+04  1.82445E+07
       176      875.0  6.24430E+04  1.85567E+07
       177      880.0  6.31240E+04  1.88723E+07
       178      885.0  6.54348E+04  1.91995E+07
       179      890.0  6.68668E+04  1.95338E+07
       180      895.0  6.70596E+04  1.98691E+07
       181      900.0  6.90984E+04  2.02146E+07
       182      905.0  6.59164E+04  2.05442E+07
       183      910.0  6.89044E+04  2.08887E+07
       184      915.0  7.07624E+04  2.12425E+07
       185      920.0  6.92016E+04  2.15886E+07
       186      925.0  7.54448E+04  2.19658E+07
       187      930.0  7.16484E+04  2.23240E+07
       188      935.0  7.37606E+04  2.26928E+07
       189      940.0  7.50364E+04  2.30680E+07
       190      945.0  7.17064E+04  2.34265E+07
       191      950.0  7.78888E+04  2.38160E+07
       192      955.0  7.74042E+04  2.42030E+07
       193      960.0  7.94618E+04  2.46003E+07
       194      965.0  8.14122E+04  2.50074E+07
       195      970.0  7.66994E+04  2.53909E+07
       196      975.0  8.22934E+04  2.58023E+07
       197      980.0  8.06460E+04  2.62056E+07
       198      985.0  8.27312E+04  2.66192E+07
       199      990.0  8.61562E+04  2.70500E+07
       200      995.0  8.30434E+04  2.74652E+07
       201     1000.0  8.58096E+04  2.78943E+07
       202     1005.0  8.87640E+04  2.83381E+07
       203     1010.0  8.76236E+04  2.87762E+07
       204     1015.0  8.81840E+04  2.92171E+07
       205     1020.0  9.03952E+04  2.96691E+07
       206     1025.0  8.94956E+04  3.01166E+07
       207     1030.0  9.37088E+04  3.05851E+07
       208     1035.0  9.43512E+04  3.10569E+07
       209     1040.0  9.24266E+04  3.15190E+07
       210     1045.0  9.72252E+04  3.20051E+07
       211     1050.0  9.29276E+04  3.24698E+07
       212     1055.0  9.96298E+04  3.29679E+07
       213     1060.0  1.00834E+05  3.34721E+07
       214     1065.0  9.87108E+04  3.39656E+07
       215     1070.0  1.05106E+05  3.44912E+07
       216     1075.0  1.01488E+05  3.49986E+07
       217     1080.0  1.02811E+05  3.55127E+07
       218     1085.0  1.05229E+05  3.60388E+07
       219     1090.0  1.03571E+05  3.65567E+07
       220     1095.0  1.09120E+05  3.71023E+07
       221     1100.0  1.11040E+05  3.76575E+07
       222     1105.0  1.09267E+05  3.82038E+07
       223     1110.0  1.14003E+05  3.87738E+07
       224     1115.0  1.10319E+05  3.93254E+07
       225     1120.0  1.14738E+05  3.98991E+07
       226     1125.0  1.14958E+05  4.04739E+07
       227     1130.0  1.16569E+05  4.10567E+07
       228     1135.0  1.16940E+05  4.16414E+07
       229     1140.0  1.21550E+05  4.22492E+07
       230     1145.0  1.20772E+05  4.28530E+07
       231     1150.0  1.24178E+05  4.34739E+07
       232     1155.0  1.22972E+05  4.40888E+07
       233     1160.0  1.21413E+05  4.46959E+07
       234     1165.0  1.28066E+05  4.53362E+07
       235     1170.0  1.25842E+05  4.59654E+07
       236     1175.0  1.31628E+05  4.66235E+07
       237     1180.0  1.32936E+05  4.72882E+07
       238     1185.0  1.31520E+05  4.79458E+07
       239     1190.0  1.33822E+05  4.86149E+07
       240     1195.0  1.32478E+05  4.92773E+07
       241     1200.0  1.33598E+05  4.99453E+07
       242     1205.0  1.43405E+05  5.06623E+07
       243     1210.0  1.36816E+05  5.13464E+07
       244     1215.0  1.43939E+05  5.20661E+07
       245     1220.0  1.42375E+05  5.27780E+07
       246     1225.0  1.39995E+05  5.34780E+07
       247     1230.0  1.47951E+05  5.42177E+07
       248     1235.0  1.46783E+05  5.49516E+07
       249     1240.0  1.47137E+05  5.56873E+07
       250     1245.0  1.50841E+05  5.64415E+07
       251     1250.0  1.53333E+05  5.72082E+07
       252     1255.0  1.53369E+05  5.79750E+07
       253     1260.0  1.57248E+05  5.87613E+07
       254     1265.0  1.55300E+05  5.95378E+07
       255     1270.0  1.56949E+05  6.03225E+07
       256     1275.0  1.60264E+05  6.11238E+07
       257     1280.0  1.60787E+05  6.19278E+07
       258     1285.0  1.67624E+05  6.27659E+07
       259     1290.0  1.64493E+05  6.35884E+07
       260     1295.0  1.66816E+05  6.44224E+07
       261     1300.0  1.73806E+05  6.52915E+07
       262     1305.0  1.66623E+05  6.61246E+07
       263     1310.0  1.74383E+05  6.69965E+07
       264     1315.0  1.75538E+05  6.78742E+07
       265     1320.0  1.76971E+05  6.87590E+07
       266     1325.0  1.81254E+05  6.96653E+07
       267     1330.0  1.79979E+05  7.05652E+07
       268     1335.0  1.80879E+05  7.14696E+07
       269     1340.0  1.87440E+05  7.24068E+07
       270     1345.0  1.84775E+05  7.33307E+07
       271     1350.0  1.90705E+05  7.42842E+07
       272     1355.0  1.87594E+05  7.52222E+07
       273     1360.0  1.90462E+05  7.61745E+07
       274     1365.0  1.97235E+05  7.71607E+07
       275     1370.0  1.95646E+05  7.81389E+07
       276     1375.0  2.02717E+05  7.91525E+07
       277     1380.0  1.99682E+05  8.01509E+07
       278     1385.0  2.02182E+05  8.11618E+07
       279     1390.0  2.06119E+05  8.21924E+07
       280     1395.0  2.11493E+05  8.32499E+07
       281     1400.0  2.02827E+05  8.42640E+07
       282     1405.0  2.16156E+05  8.53448E+07
       283     1410.0  2.10112E+05  8.63953E+07
       284     1415.0  2.14071E+05  8.74657E+07
       285     1420.0  2.23089E+05  8.85811E+07
       286     1425.0  2.18334E+05  8.96728E+07
       287     1430.0  2.28279E+05  9.08142E+07
       288     1435.0  2.26303E+05  9.19457E+07
       289     1440.0  2.25772E+05  9.30746E+07
       290     1445.0  2.32534E+05  9.42372E+07
       291     1450.0  2.30477E+05  9.53896E+07
       292     1455.0  2.34228E+05  9.65608E+07
       293     1460.0  2.45043E+05  9.77860E+07
       294     1465.0  2.32615E+05  9.89490E+07
       295     1470.0  2.46565E+05  1.00182E+08
       296     1475.0  2.42050E+05  1.01392E+08
       297     1480.0  2.48355E+05  1.02634E+08
       298     1485.0  2.54024E+05  1.03904E+08
       299     1490.0  2.49759E+05  1.05153E+08
       300     1495.0  2.54721E+05  1.06426E+08
       301     1500.0  2.59500E+05  1.07724E+08
       302     1505.0  2.62408E+05  1.09036E+08
       303     1510.0  2.64505E+05  1.10358E+08
       304     1515.0  2.66103E+05  1.11689E+08
       305     1520.0  2.65740E+05  1.13018E+08
       306     1525.0  2.76231E+05  1.14399E+08
       307     1530.0  2.72953E+05  1.15764E+08
       308     1535.0  2.77165E+05  1.17149E+08
       309     1540.0  2.83147E+05  1.18565E+08
       310     1545.0  2.79224E+05  1.19961E+08
       311     1550.0  2.87993E+05  1.21401E+08
       312     1555.0  2.86179E+05  1.22832E+08
       313     1560.0  2.86949E+05  1.24267E+08
       314     1565.0  3.03610E+05  1.25785E+08
       315     1570.0  2.90886E+05  1.27239E+08
       316     1575.0  3.09136E+05  1.28785E+08
       317     1580.0  3.02240E+05  1.30296E+08
       318     1585.0  3.00949E+05  1.31801E+08
       319     1590.0  3.13744E+05  1.33370E+08
       320     1595.0  3.11804E+05  1.34929E+08
       321     1600.0  3.14021E+05  1.36499E+08
       322     1605.0  3.19691E+05  1.38097E+08
       323     1610.0  3.13625E+05  1.39665E+08
       324     1615.0  3.28803E+05  1.41309E+08
       325     1620.0  3.31466E+05  1.42967E+08
       326     1625.0  3.28823E+05  1.44611E+08
       327     1630.0  3.35041E+05  1.46286E+08
       328     1635.0  3.36683E+05  1.47970E+08
       329     1640.0  3.40358E+05  1.49671E+08
       330     1645.0  3.45228E+05  1.51397E+08
       331     1650.0  3.45720E+05  1.53126E+08
       332     1655.0  3.47495E+05  1.54864E+08
       333     1660.0  3.55751E+05  1.56642E+08
       334     1665.0  3.53275E+05  1.58409E+08
       335     1670.0  3.68474E+05  1.60251E+08
       336     1675.0  3.60187E+05  1.62052E+08
       337     1680.0  3.68507E+05  1.63894E+08
       338     1685.0  3.75639E+05  1.65773E+08
       339     1690.0  3.71195E+05  1.67629E+08
       340     1695.0  3.75131E+05  1.69504E+08
       341     1700.0  3.81894E+05  1.71414E+08
       342     1705.0  3.80905E+05  1.73318E+08
       343     1710.0  3.96527E+05  1.75301E+08
       344     1715.0  3.86850E+05  1.77235E+08
       345     1720.0  3.93894E+05  1.79205E+08
       346     1725.0  4.00847E+05  1.81209E+08
       347     1730.0  4.00957E+05  1.83214E+08
       348     1735.0  4.11932E+05  1.85273E+08
       349     1740.0  4.11581E+05  1.87331E+08
       350     1745.0  4.15299E+05  1.89408E+08
       351     1750.0  4.17911E+05  1.91497E+08
       352     1755.0  4.23207E+05  1.93613E+08
       353     1760.0  4.21065E+05  1.95719E+08
       354     1765.0  4.33715E+05  1.97887E+08
       355     1770.0  4.29575E+05  2.00035E+08
       356     1775.0  4.36519E+05  2.02218E+08
       357     1780.0  4.49299E+05  2.04464E+08
       358     1785.0  4.36758E+05  2.06648E+08
       359     1790.0  4.59720E+05  2.08947E+08
       360     1795.0  4.52100E+05  2.11207E+08
       361     1800.0  4.53281E+05  2.13473E+08
       362     1805.0  4.66510E+05  2.15806E+08
