**************INPUT DATA SUMMARY**************
%%%%%%%%%%%%%%%%%%%%%%%%%%%%%%%%%%%%%%%%%%%%%%%%%%%%%%%%%%%%%%%%%%%%%%%%%%%%%%

                                        John R. Barker
                DenSum-2023             University of Michigan
                                        Ann Arbor, MI 48109-2143
                Mar 2023                jrbarker@umich.edu
                                        (734) 763 6239

              http://clasp-research.engin.umich.edu/multiwell/

%%%%%%%%%%%%%%%%%%%%%%%%%%%%%%%%%%%%%%%%%%%%%%%%%%%%%%%%%%%%%%%%%%%%%%%%%%%%%%

        Suggested Literature Citations:

    a) J.R. Barker, T.L. Nguyen, J.F. Stanton, C. Aieta, M. Ceotto,
       F. Gabas, T.J.D. Kumar, C.G.L.Li, L.L.Lohr, A. Maranzana,
       N.F. Ortiz, J.M. Preses, J.M. Simmie, J.A. Sonk, and P.J. Stimac; 
       MultiWell-2023    Software Suite; University of Michigan, 
       Ann Arbor, Michigan, USA, Mar 2023; 
       http://clasp-research.engin.umich.edu/multiwell/.

    b) J.R. Barker, Int. J. Chem. Kinetics, 33, 232-45 (2001)

%%%%%%%%%%%%%%%%%%%%%%%%%%%%%%%%%%%%%%%%%%%%%%%%%%%%%%%%%%%%%%%%%%%%%%%%%%%%%%


....................................................
          2023/03/24   07:10:13.229   (Local Time)
          year/mm/dd   hr:mi:second
                 CPU :        0.006 s (  0.000 hr)
....................................................


Degrees of Freedom

  1  Hind.Rot  Freq(har)=  303.61  Mom=  10.806  fold= 3  symm= 3  B=  1.5600 cm-1  Uo= 6565.3 cm-1
  2  Vibrator: Fund=   826.63  Harm=   826.63  Anh(cm-1)=    0.00  g=  1
  3  Vibrator: Fund=   826.63  Harm=   826.63  Anh(cm-1)=    0.00  g=  1
  4  Vibrator: Fund=   996.29  Harm=   996.29  Anh(cm-1)=    0.00  g=  1
  5  Vibrator: Fund=  1223.36  Harm=  1223.36  Anh(cm-1)=    0.00  g=  1
  6  Vibrator: Fund=  1223.37  Harm=  1223.37  Anh(cm-1)=    0.00  g=  1
  7  Vibrator: Fund=  1414.37  Harm=  1414.37  Anh(cm-1)=    0.00  g=  1
  8  Vibrator: Fund=  1424.33  Harm=  1424.33  Anh(cm-1)=    0.00  g=  1
  9  Vibrator: Fund=  1505.37  Harm=  1505.37  Anh(cm-1)=    0.00  g=  1
 10  Vibrator: Fund=  1505.37  Harm=  1505.37  Anh(cm-1)=    0.00  g=  1
 11  Vibrator: Fund=  1509.06  Harm=  1509.06  Anh(cm-1)=    0.00  g=  1
 12  Vibrator: Fund=  1509.06  Harm=  1509.06  Anh(cm-1)=    0.00  g=  1
 13  Vibrator: Fund=  3026.55  Harm=  3026.55  Anh(cm-1)=    0.00  g=  1
 14  Vibrator: Fund=  3027.09  Harm=  3027.09  Anh(cm-1)=    0.00  g=  1
 15  Vibrator: Fund=  3072.08  Harm=  3072.08  Anh(cm-1)=    0.00  g=  1
 16  Vibrator: Fund=  3072.08  Harm=  3072.08  Anh(cm-1)=    0.00  g=  1
 17  Vibrator: Fund=  3097.01  Harm=  3097.01  Anh(cm-1)=    0.00  g=  1
 18  Vibrator: Fund=  3097.01  Harm=  3097.01  Anh(cm-1)=    0.00  g=  1
 19  Quan.Rot  AmuAng^2 =    2.70  Symm =  1.   dim = 1  B =  6.2392 cm-1
 20  Quan.Rot  AmuAng^2 =    0.67  Symm =  1.   dim = 2  B = 25.2708 cm-1
**************INPUT DATA SUMMARY**************
 C2H6-k
C2H6 ktools example                               
       10.0       1500    85000.0       2000      303.6
       No.    E-Emin     Density     Sum   [Emin =    0.0 cm-1; E at TOP of energy grains]
         1        0.0  1.00000E-01  1.00000E+00
         2       10.0  2.00000E-01  3.00000E+00
         3       20.0  2.00000E-01  5.00000E+00
         4       30.0  0.00000E+00  5.00000E+00
         5       40.0  0.00000E+00  5.00000E+00
         6       50.0  3.00000E-01  8.00000E+00
         7       60.0  8.00000E-01  1.60000E+01
         8       70.0  6.00000E-01  2.20000E+01
         9       80.0  0.00000E+00  2.20000E+01
        10       90.0  0.00000E+00  2.20000E+01
        11      100.0  2.00000E-01  2.40000E+01
        12      110.0  6.00000E-01  3.00000E+01
        13      120.0  0.00000E+00  3.00000E+01
        14      130.0  0.00000E+00  3.00000E+01
        15      140.0  0.00000E+00  3.00000E+01
        16      150.0  1.10000E+00  4.10000E+01
        17      160.0  1.20000E+00  5.30000E+01
        18      170.0  1.00000E+00  6.30000E+01
        19      180.0  0.00000E+00  6.30000E+01
        20      190.0  0.00000E+00  6.30000E+01
        21      200.0  0.00000E+00  6.30000E+01
        22      210.0  1.60000E+00  7.90000E+01
        23      220.0  2.00000E-01  8.10000E+01
        24      230.0  0.00000E+00  8.10000E+01
        25      240.0  0.00000E+00  8.10000E+01
        26      250.0  1.00000E+00  9.10000E+01
        27      260.0  0.00000E+00  9.10000E+01
        28      270.0  6.00000E-01  9.70000E+01
        29      280.0  0.00000E+00  9.70000E+01
        30      290.0  0.00000E+00  9.70000E+01
        31      300.0  8.00000E-01  1.05000E+02
        32      310.0  2.80000E+00  1.33000E+02
        33      320.0  1.60000E+00  1.49000E+02
        34      330.0  0.00000E+00  1.49000E+02
        35      340.0  0.00000E+00  1.49000E+02
        36      350.0  3.00000E-01  1.52000E+02
        37      360.0  2.80000E+00  1.80000E+02
        38      370.0  1.60000E+00  1.96000E+02
        39      380.0  0.00000E+00  1.96000E+02
        40      390.0  0.00000E+00  1.96000E+02
        41      400.0  1.80000E+00  2.14000E+02
        42      410.0  6.00000E-01  2.20000E+02
        43      420.0  0.00000E+00  2.20000E+02
        44      430.0  0.00000E+00  2.20000E+02
        45      440.0  0.00000E+00  2.20000E+02
        46      450.0  1.70000E+00  2.37000E+02
        47      460.0  3.60000E+00  2.73000E+02
        48      470.0  1.00000E+00  2.83000E+02
        49      480.0  0.00000E+00  2.83000E+02
        50      490.0  0.00000E+00  2.83000E+02
        51      500.0  0.00000E+00  2.83000E+02
        52      510.0  2.70000E+00  3.10000E+02
        53      520.0  3.40000E+00  3.44000E+02
        54      530.0  1.80000E+00  3.62000E+02
        55      540.0  0.00000E+00  3.62000E+02
        56      550.0  2.00000E+00  3.82000E+02
        57      560.0  6.00000E-01  3.88000E+02
        58      570.0  2.40000E+00  4.12000E+02
        59      580.0  0.00000E+00  4.12000E+02
        60      590.0  0.00000E+00  4.12000E+02
        61      600.0  8.00000E-01  4.20000E+02
        62      610.0  6.00000E+00  4.80000E+02
        63      620.0  1.80000E+00  4.98000E+02
        64      630.0  0.00000E+00  4.98000E+02
        65      640.0  0.00000E+00  4.98000E+02
        66      650.0  3.00000E-01  5.01000E+02
        67      660.0  3.80000E+00  5.39000E+02
        68      670.0  4.00000E+00  5.79000E+02
        69      680.0  0.00000E+00  5.79000E+02
        70      690.0  0.00000E+00  5.79000E+02
        71      700.0  3.20000E+00  6.11000E+02
        72      710.0  6.00000E-01  6.17000E+02
        73      720.0  0.00000E+00  6.17000E+02
        74      730.0  1.80000E+00  6.35000E+02
        75      740.0  0.00000E+00  6.35000E+02
        76      750.0  1.90000E+00  6.54000E+02
        77      760.0  4.70000E+00  7.01000E+02
        78      770.0  4.20000E+00  7.43000E+02
        79      780.0  2.20000E+00  7.65000E+02
        80      790.0  0.00000E+00  7.65000E+02
        81      800.0  6.00000E-01  7.71000E+02
        82      810.0  4.10000E+00  8.12000E+02
        83      820.0  7.40000E+00  8.86000E+02
        84      830.0  2.00000E+00  9.06000E+02
        85      840.0  4.00000E-01  9.10000E+02
        86      850.0  2.40000E+00  9.34000E+02
        87      860.0  2.80000E+00  9.62000E+02
        88      870.0  2.40000E+00  9.86000E+02
        89      880.0  6.00000E-01  9.92000E+02
        90      890.0  1.70000E+00  1.00900E+03
        91      900.0  3.30000E+00  1.04200E+03
        92      910.0  7.80000E+00  1.12000E+03
        93      920.0  5.20000E+00  1.17200E+03
        94      930.0  4.00000E-01  1.17600E+03
        95      940.0  1.50000E+00  1.19100E+03
        96      950.0  1.40000E+00  1.20500E+03
        97      960.0  3.60000E+00  1.24100E+03
        98      970.0  3.40000E+00  1.27500E+03
        99      980.0  4.40000E+00  1.31900E+03
       100      990.0  2.60000E+00  1.34500E+03
       101     1000.0  5.70000E+00  1.40200E+03
       102     1010.0  2.00000E-01  1.40400E+03
       103     1020.0  2.00000E+00  1.42400E+03
       104     1030.0  1.80000E+00  1.44200E+03
       105     1040.0  4.30000E+00  1.48500E+03
       106     1050.0  5.30000E+00  1.53800E+03
       107     1060.0  6.60000E+00  1.60400E+03
       108     1070.0  8.60000E+00  1.69000E+03
       109     1080.0  6.80000E+00  1.75800E+03
       110     1090.0  0.00000E+00  1.75800E+03
       111     1100.0  4.20000E+00  1.80000E+03
       112     1110.0  3.30000E+00  1.83300E+03
       113     1120.0  9.80000E+00  1.93100E+03
       114     1130.0  5.20000E+00  1.98300E+03
       115     1140.0  6.60000E+00  2.04900E+03
       116     1150.0  5.30000E+00  2.10200E+03
       117     1160.0  9.40000E+00  2.19600E+03
       118     1170.0  2.80000E+00  2.22400E+03
       119     1180.0  7.00000E-01  2.23100E+03
       120     1190.0  6.50000E+00  2.29600E+03
       121     1200.0  9.60000E+00  2.39200E+03
       122     1210.0  8.00000E+00  2.47200E+03
       123     1220.0  7.00000E+00  2.54200E+03
       124     1230.0  4.30000E+00  2.58500E+03
       125     1240.0  2.40000E+00  2.60900E+03
       126     1250.0  4.20000E+00  2.65100E+03
       127     1260.0  3.80000E+00  2.68900E+03
       128     1270.0  6.40000E+00  2.75300E+03
       129     1280.0  1.00000E+01  2.85300E+03
       130     1290.0  1.06000E+01  2.95900E+03
       131     1300.0  4.20000E+00  3.00100E+03
       132     1310.0  2.80000E+00  3.02900E+03
       133     1320.0  3.80000E+00  3.06700E+03
       134     1330.0  4.10000E+00  3.10800E+03
       135     1340.0  7.20000E+00  3.18000E+03
       136     1350.0  1.47000E+01  3.32700E+03
       137     1360.0  8.80000E+00  3.41500E+03
       138     1370.0  1.54000E+01  3.56900E+03
       139     1380.0  1.34000E+01  3.70300E+03
       140     1390.0  4.80000E+00  3.75100E+03
       141     1400.0  9.30000E+00  3.84400E+03
       142     1410.0  7.10000E+00  3.91500E+03
       143     1420.0  1.02000E+01  4.01700E+03
       144     1430.0  1.10000E+01  4.12700E+03
       145     1440.0  1.66000E+01  4.29300E+03
       146     1450.0  7.10000E+00  4.36400E+03
       147     1460.0  1.54000E+01  4.51800E+03
       148     1470.0  4.30000E+00  4.56100E+03
       149     1480.0  5.90000E+00  4.62000E+03
       150     1490.0  1.20000E+01  4.74000E+03
       151     1500.0  1.62000E+01  4.90200E+03
       152     1510.0  7.80000E+00  4.98000E+03
       153     1520.0  1.82000E+01  5.16200E+03
       154     1530.0  1.58000E+01  5.32000E+03
       155     1540.0  6.40000E+00  5.38400E+03
       156     1550.0  5.60000E+00  5.44000E+03
       157     1560.0  1.27000E+01  5.56700E+03
       158     1570.0  1.45000E+01  5.71200E+03
       159     1580.0  2.34000E+01  5.94600E+03
       160     1590.0  1.50000E+01  6.09600E+03
       161     1600.0  9.40000E+00  6.19000E+03
       162     1610.0  1.23000E+01  6.31300E+03
       163     1620.0  1.42000E+01  6.45500E+03
       164     1630.0  5.80000E+00  6.51300E+03
       165     1640.0  1.40000E+01  6.65300E+03
       166     1650.0  2.10000E+01  6.86300E+03
       167     1660.0  2.00000E+01  7.06300E+03
       168     1670.0  2.60000E+01  7.32300E+03
       169     1680.0  2.36000E+01  7.55900E+03
       170     1690.0  9.90000E+00  7.65800E+03
       171     1700.0  1.54000E+01  7.81200E+03
       172     1710.0  1.19000E+01  7.93100E+03
       173     1720.0  1.63000E+01  8.09400E+03
       174     1730.0  2.84000E+01  8.37800E+03
       175     1740.0  2.77000E+01  8.65500E+03
       176     1750.0  2.21000E+01  8.87600E+03
       177     1760.0  1.87000E+01  9.06300E+03
       178     1770.0  1.51000E+01  9.21400E+03
       179     1780.0  1.74000E+01  9.38800E+03
       180     1790.0  1.83000E+01  9.57100E+03
       181     1800.0  1.50000E+01  9.72100E+03
       182     1810.0  2.82000E+01  1.00030E+04
       183     1820.0  4.01000E+01  1.04040E+04
       184     1830.0  3.36000E+01  1.07400E+04
       185     1840.0  9.20000E+00  1.08320E+04
       186     1850.0  1.06000E+01  1.09380E+04
       187     1860.0  1.77000E+01  1.11150E+04
       188     1870.0  3.13000E+01  1.14280E+04
       189     1880.0  3.90000E+01  1.18180E+04
       190     1890.0  2.34000E+01  1.20520E+04
       191     1900.0  2.41000E+01  1.22930E+04
       192     1910.0  3.26000E+01  1.26190E+04
       193     1920.0  2.37000E+01  1.28560E+04
       194     1930.0  1.71000E+01  1.30270E+04
       195     1940.0  1.88000E+01  1.32150E+04
       196     1950.0  3.71000E+01  1.35860E+04
       197     1960.0  3.80000E+01  1.39660E+04
       198     1970.0  3.95000E+01  1.43610E+04
       199     1980.0  3.86000E+01  1.47470E+04
       200     1990.0  3.47000E+01  1.50940E+04
       201     2000.0  2.00000E+01  1.52940E+04
       202     2010.0  1.31000E+01  1.54250E+04
       203     2020.0  3.26000E+01  1.57510E+04
       204     2030.0  5.56000E+01  1.63070E+04
       205     2040.0  5.37000E+01  1.68440E+04
       206     2050.0  3.56000E+01  1.72000E+04
       207     2060.0  2.31000E+01  1.74310E+04
       208     2070.0  2.56000E+01  1.76870E+04
       209     2080.0  4.14000E+01  1.81010E+04
       210     2090.0  2.14000E+01  1.83150E+04
       211     2100.0  2.68000E+01  1.85830E+04
       212     2110.0  4.66000E+01  1.90490E+04
       213     2120.0  6.45000E+01  1.96940E+04
       214     2130.0  4.28000E+01  2.01220E+04
       215     2140.0  2.49000E+01  2.03710E+04
       216     2150.0  1.50000E+01  2.05210E+04
       217     2160.0  3.69000E+01  2.08900E+04
       218     2170.0  4.98000E+01  2.13880E+04
       219     2180.0  6.26000E+01  2.20140E+04
       220     2190.0  2.97000E+01  2.23110E+04
       221     2200.0  5.52000E+01  2.28630E+04
       222     2210.0  4.44000E+01  2.33070E+04
       223     2220.0  4.16000E+01  2.37230E+04
       224     2230.0  3.40000E+01  2.40630E+04
       225     2240.0  4.45000E+01  2.45080E+04
       226     2250.0  3.83000E+01  2.48910E+04
       227     2260.0  6.26000E+01  2.55170E+04
       228     2270.0  6.57000E+01  2.61740E+04
       229     2280.0  6.82000E+01  2.68560E+04
       230     2290.0  6.78000E+01  2.75340E+04
       231     2300.0  3.02000E+01  2.78360E+04
       232     2310.0  3.18000E+01  2.81540E+04
       233     2320.0  6.54000E+01  2.88080E+04
       234     2330.0  9.01000E+01  2.97090E+04
       235     2340.0  6.29000E+01  3.03380E+04
       236     2350.0  6.78000E+01  3.10160E+04
       237     2360.0  4.33000E+01  3.14490E+04
       238     2370.0  5.28000E+01  3.19770E+04
       239     2380.0  6.52000E+01  3.26290E+04
       240     2390.0  3.56000E+01  3.29850E+04
       241     2400.0  4.79000E+01  3.34640E+04
       242     2410.0  8.82000E+01  3.43460E+04
       243     2420.0  8.84000E+01  3.52300E+04
       244     2430.0  6.60000E+01  3.58900E+04
       245     2440.0  5.44000E+01  3.64340E+04
       246     2450.0  4.64000E+01  3.68980E+04
       247     2460.0  5.55000E+01  3.74530E+04
       248     2470.0  7.88000E+01  3.82410E+04
       249     2480.0  7.13000E+01  3.89540E+04
       250     2490.0  7.53000E+01  3.97070E+04
       251     2500.0  8.62000E+01  4.05690E+04
       252     2510.0  8.79000E+01  4.14480E+04
       253     2520.0  5.28000E+01  4.19760E+04
       254     2530.0  6.60000E+01  4.26360E+04
       255     2540.0  6.20000E+01  4.32560E+04
       256     2550.0  6.81000E+01  4.39370E+04
       257     2560.0  1.12700E+02  4.50640E+04
       258     2570.0  1.11800E+02  4.61820E+04
       259     2580.0  1.14400E+02  4.73260E+04
       260     2590.0  1.00000E+02  4.83260E+04
       261     2600.0  6.05000E+01  4.89310E+04
       262     2610.0  7.43000E+01  4.96740E+04
       263     2620.0  9.54000E+01  5.06280E+04
       264     2630.0  1.05600E+02  5.16840E+04
       265     2640.0  1.10200E+02  5.27860E+04
       266     2650.0  1.16000E+02  5.39460E+04
       267     2660.0  1.06400E+02  5.50100E+04
       268     2670.0  9.68000E+01  5.59780E+04
       269     2680.0  8.18000E+01  5.67960E+04
       270     2690.0  5.93000E+01  5.73890E+04
       271     2700.0  1.09900E+02  5.84880E+04
       272     2710.0  1.31900E+02  5.98070E+04
       273     2720.0  1.18100E+02  6.09880E+04
       274     2730.0  1.07600E+02  6.20640E+04
       275     2740.0  1.04300E+02  6.31070E+04
       276     2750.0  8.90000E+01  6.39970E+04
       277     2760.0  9.46000E+01  6.49430E+04
       278     2770.0  1.07000E+02  6.60130E+04
       279     2780.0  1.25800E+02  6.72710E+04
       280     2790.0  1.54400E+02  6.88150E+04
       281     2800.0  1.44600E+02  7.02610E+04
       282     2810.0  1.43700E+02  7.16980E+04
       283     2820.0  1.09200E+02  7.27900E+04
       284     2830.0  9.26000E+01  7.37160E+04
       285     2840.0  9.94000E+01  7.47100E+04
       286     2850.0  1.11600E+02  7.58260E+04
       287     2860.0  1.76000E+02  7.75860E+04
       288     2870.0  1.78900E+02  7.93750E+04
       289     2880.0  1.84800E+02  8.12230E+04
       290     2890.0  1.37900E+02  8.26020E+04
       291     2900.0  1.21200E+02  8.38140E+04
       292     2910.0  1.43000E+02  8.52440E+04
       293     2920.0  1.26800E+02  8.65120E+04
       294     2930.0  1.52100E+02  8.80330E+04
       295     2940.0  1.73300E+02  8.97660E+04
       296     2950.0  1.90200E+02  9.16680E+04
       297     2960.0  1.50400E+02  9.31720E+04
       298     2970.0  1.69300E+02  9.48650E+04
       299     2980.0  1.11700E+02  9.59820E+04
       300     2990.0  1.44200E+02  9.74240E+04
       301     3000.0  1.89200E+02  9.93160E+04
       302     3010.0  1.77700E+02  1.01093E+05
       303     3020.0  1.57700E+02  1.02670E+05
       304     3030.0  2.22400E+02  1.04894E+05
       305     3040.0  1.90400E+02  1.06798E+05
       306     3050.0  1.50000E+02  1.08298E+05
       307     3060.0  1.50000E+02  1.09798E+05
       308     3070.0  1.76800E+02  1.11566E+05
       309     3080.0  1.91700E+02  1.13483E+05
       310     3090.0  2.64800E+02  1.16131E+05
       311     3100.0  2.09600E+02  1.18227E+05
       312     3110.0  2.23800E+02  1.20465E+05
       313     3120.0  1.94300E+02  1.22408E+05
       314     3130.0  1.73300E+02  1.24141E+05
       315     3140.0  1.52400E+02  1.25665E+05
       316     3150.0  2.17100E+02  1.27836E+05
       317     3160.0  2.62000E+02  1.30456E+05
       318     3170.0  2.80900E+02  1.33265E+05
       319     3180.0  2.88900E+02  1.36154E+05
       320     3190.0  2.03700E+02  1.38191E+05
       321     3200.0  2.03900E+02  1.40230E+05
       322     3210.0  2.31100E+02  1.42541E+05
       323     3220.0  2.05200E+02  1.44593E+05
       324     3230.0  2.11700E+02  1.46710E+05
       325     3240.0  3.01300E+02  1.49723E+05
       326     3250.0  2.80200E+02  1.52525E+05
       327     3260.0  2.83400E+02  1.55359E+05
       328     3270.0  2.54200E+02  1.57901E+05
       329     3280.0  1.99900E+02  1.59900E+05
       330     3290.0  2.52400E+02  1.62424E+05
       331     3300.0  2.71100E+02  1.65135E+05
       332     3310.0  2.30000E+02  1.67435E+05
       333     3320.0  3.17900E+02  1.70614E+05
       334     3330.0  3.56700E+02  1.74181E+05
       335     3340.0  3.23700E+02  1.77418E+05
       336     3350.0  2.37700E+02  1.79795E+05
       337     3360.0  2.39100E+02  1.82186E+05
       338     3370.0  2.50700E+02  1.84693E+05
       339     3380.0  3.47400E+02  1.88167E+05
       340     3390.0  3.77200E+02  1.91939E+05
       341     3400.0  3.52400E+02  1.95463E+05
       342     3410.0  3.24900E+02  1.98712E+05
       343     3420.0  3.41600E+02  2.02128E+05
       344     3430.0  2.57500E+02  2.04703E+05
       345     3440.0  2.85100E+02  2.07554E+05
       346     3450.0  3.27000E+02  2.10824E+05
       347     3460.0  4.06100E+02  2.14885E+05
       348     3470.0  4.20400E+02  2.19089E+05
       349     3480.0  3.68100E+02  2.22770E+05
       350     3490.0  3.77700E+02  2.26547E+05
       351     3500.0  3.83000E+02  2.30377E+05
