**************INPUT DATA SUMMARY**************
%%%%%%%%%%%%%%%%%%%%%%%%%%%%%%%%%%%%%%%%%%%%%%%%%%%%%%%%%%%%%%%%%%%%%%%%%%%%%%

                                        John R. Barker
                DenSum-2019             University of Michigan
                                        Ann Arbor, MI 48109-2143
                Apr 2019                jrbarker@umich.edu
                                        (734) 763 6239

              http://clasp-research.engin.umich.edu/multiwell/

%%%%%%%%%%%%%%%%%%%%%%%%%%%%%%%%%%%%%%%%%%%%%%%%%%%%%%%%%%%%%%%%%%%%%%%%%%%%%%

        Suggested Literature Citations:

    a) J.R. Barker, T.L. Nguyen, J.F. Stanton, C. Aieta, M. Ceotto,
       F. Gabas, T.J.D. Kumar, C.G.L.Li, L.L.Lohr, A. Maranzana,
       N.F. Ortiz, J.M. Preses, J.M. Simmie, J.A. Sonk, and P.J. Stimac; 
       MultiWell-2019    Software Suite; University of Michigan, 
       Ann Arbor, Michigan, USA, Apr 2019; 
       http://clasp-research.engin.umich.edu/multiwell/.

    b) J.R. Barker, Int. J. Chem. Kinetics, 33, 232-45 (2001)

%%%%%%%%%%%%%%%%%%%%%%%%%%%%%%%%%%%%%%%%%%%%%%%%%%%%%%%%%%%%%%%%%%%%%%%%%%%%%%


....................................................
          2019/05/21   08:45:11.743   (Local Time)
          year/mm/dd   hr:mi:second
                 CPU :        0.002 s (  0.000 hr)
....................................................


Degrees of Freedom

  1  Vibrator: Fund=  3416.90  Harm=  3598.70  Anh(cm-1)=  -90.90  g=  1
  2  Vibrator: Fund=  1367.50  Harm=  1387.50  Anh(cm-1)=  -10.00  g=  1
  3  Vibrator: Fund=   855.00  Harm=   875.00  Anh(cm-1)=  -10.00  g=  1
  4  General Hind.Rot:  Vhr_Type = VHRD2; Bhr/Ihr_Type = BHRD1
     Vhr:  Symm. =  1  Phase (rad.) =  0.0000  Coeff. (cm-1) =   645.1000  1036.9700   657.5300    50.8900     2.5240
     Bhr:  Symm. =  1  Phase (rad.) =  0.0000  Coeff. (cm-1) =    39.3754
  5  Vibrator: Fund=  3430.30  Harm=  3610.70  Anh(cm-1)=  -90.20  g=  1
  6  Vibrator: Fund=  1260.00  Harm=  1266.00  Anh(cm-1)=   -3.00  g=  1
  7  Symm-Top  2D-Moment =   19.70 amua, B2 =  0.8556 cm-1  ;  1D-Moment =    1.67 amua, B1 = 10.0697 cm-1  ;  Symm. No. = 1
  8  Quan.Rot  AmuAng^2 =   16.86  Symm =  1.   dim = 1  B =  1.0000 cm-1
  9  Vibrator: Fund=  1002.00  Harm=  1000.00  Anh(cm-1)=    1.00  g=  1
 10  P-in-Box  Freq(0-1)=    3.00  Freq.Param.=    1.00  g = 1
**************INPUT DATA SUMMARY**************
 H2O2
H2O2 [Dorofeeva et al. J. Phys. Chem. Ref. Data 32
        5.0       3000    80000.0       4000        1.0
       No.    E-EJmin     Density     Sum   [EJmin =    0.0 cm-1; E at TOP of energy grains]
         1        0.0  2.40000E+00  1.20000E+01
         2        5.0  7.00000E+00  4.70000E+01
         3       10.0  2.08000E+01  1.51000E+02
         4       15.0  4.56000E+01  3.79000E+02
         5       20.0  7.78000E+01  7.68000E+02
         6       25.0  1.33200E+02  1.43400E+03
         7       30.0  1.71600E+02  2.29200E+03
         8       35.0  2.40800E+02  3.49600E+03
         9       40.0  2.87400E+02  4.93300E+03
        10       45.0  3.46600E+02  6.66600E+03
        11       50.0  4.38000E+02  8.85600E+03
        12       55.0  4.75200E+02  1.12320E+04
        13       60.0  6.17800E+02  1.43210E+04
        14       65.0  6.32200E+02  1.74820E+04
        15       70.0  7.76400E+02  2.13640E+04
        16       75.0  8.27600E+02  2.55020E+04
        17       80.0  9.05000E+02  3.00270E+04
        18       85.0  1.05640E+03  3.53090E+04
        19       90.0  1.06300E+03  4.06240E+04
        20       95.0  1.23880E+03  4.68180E+04
        21      100.0  1.27460E+03  5.31910E+04
        22      105.0  1.39880E+03  6.01850E+04
        23      110.0  1.52520E+03  6.78110E+04
        24      115.0  1.60660E+03  7.58440E+04
        25      120.0  1.79720E+03  8.48300E+04
        26      125.0  1.91380E+03  9.43990E+04
        27      130.0  1.99720E+03  1.04385E+05
        28      135.0  2.29160E+03  1.15843E+05
        29      140.0  2.16600E+03  1.26673E+05
        30      145.0  2.50680E+03  1.39207E+05
        31      150.0  2.45600E+03  1.51487E+05
        32      155.0  2.65780E+03  1.64776E+05
        33      160.0  2.77940E+03  1.78673E+05
        34      165.0  2.85800E+03  1.92963E+05
        35      170.0  3.16300E+03  2.08778E+05
        36      175.0  3.03820E+03  2.23969E+05
        37      180.0  3.54280E+03  2.41683E+05
        38      185.0  3.40600E+03  2.58713E+05
        39      190.0  3.70440E+03  2.77235E+05
        40      195.0  3.81260E+03  2.96298E+05
        41      200.0  4.01080E+03  3.16352E+05
        42      205.0  4.13320E+03  3.37018E+05
        43      210.0  4.32200E+03  3.58628E+05
        44      215.0  4.47460E+03  3.81001E+05
        45      220.0  4.69140E+03  4.04458E+05
        46      225.0  4.67820E+03  4.27849E+05
        47      230.0  5.26160E+03  4.54157E+05
        48      235.0  4.89940E+03  4.78654E+05
        49      240.0  5.34580E+03  5.05383E+05
        50      245.0  5.51900E+03  5.32978E+05
        51      250.0  5.52880E+03  5.60622E+05
        52      255.0  6.06360E+03  5.90940E+05
        53      260.0  5.71180E+03  6.19499E+05
        54      265.0  6.49220E+03  6.51960E+05
        55      270.0  5.83520E+03  6.81136E+05
        56      275.0  7.03100E+03  7.16291E+05
        57      280.0  6.76060E+03  7.50094E+05
        58      285.0  6.93740E+03  7.84781E+05
        59      290.0  7.50000E+03  8.22281E+05
        60      295.0  7.19160E+03  8.58239E+05
        61      300.0  7.77320E+03  8.97105E+05
        62      305.0  8.06240E+03  9.37417E+05
        63      310.0  7.98820E+03  9.77358E+05
        64      315.0  8.78980E+03  1.02131E+06
        65      320.0  8.39200E+03  1.06327E+06
        66      325.0  9.13400E+03  1.10894E+06
        67      330.0  9.25160E+03  1.15520E+06
        68      335.0  8.75500E+03  1.19897E+06
        69      340.0  1.03766E+04  1.25085E+06
        70      345.0  9.27380E+03  1.29722E+06
        71      350.0  1.06846E+04  1.35064E+06
        72      355.0  1.00576E+04  1.40093E+06
        73      360.0  1.06236E+04  1.45405E+06
        74      365.0  1.06992E+04  1.50755E+06
        75      370.0  1.12170E+04  1.56363E+06
        76      375.0  1.17394E+04  1.62233E+06
        77      380.0  1.14142E+04  1.67940E+06
        78      385.0  1.24576E+04  1.74169E+06
        79      390.0  1.20974E+04  1.80218E+06
        80      395.0  1.32758E+04  1.86855E+06
        81      400.0  1.26366E+04  1.93174E+06
        82      405.0  1.33644E+04  1.99856E+06
        83      410.0  1.36852E+04  2.06698E+06
        84      415.0  1.36360E+04  2.13516E+06
        85      420.0  1.51112E+04  2.21072E+06
        86      425.0  1.48156E+04  2.28480E+06
        87      430.0  1.43514E+04  2.35656E+06
        88      435.0  1.61202E+04  2.43716E+06
        89      440.0  1.47916E+04  2.51112E+06
        90      445.0  1.70740E+04  2.59648E+06
        91      450.0  1.64810E+04  2.67889E+06
        92      455.0  1.67874E+04  2.76283E+06
        93      460.0  1.79906E+04  2.85278E+06
        94      465.0  1.63784E+04  2.93467E+06
        95      470.0  1.88320E+04  3.02883E+06
        96      475.0  1.79306E+04  3.11848E+06
        97      480.0  1.84450E+04  3.21071E+06
        98      485.0  1.96414E+04  3.30892E+06
        99      490.0  1.92020E+04  3.40493E+06
       100      495.0  1.99390E+04  3.50462E+06
       101      500.0  2.04990E+04  3.60712E+06
       102      505.0  2.07598E+04  3.71092E+06
       103      510.0  2.12664E+04  3.81725E+06
       104      515.0  2.09238E+04  3.92187E+06
       105      520.0  2.22166E+04  4.03295E+06
       106      525.0  2.15364E+04  4.14063E+06
       107      530.0  2.38324E+04  4.25979E+06
       108      535.0  2.25386E+04  4.37249E+06
       109      540.0  2.48036E+04  4.49650E+06
       110      545.0  2.29606E+04  4.61131E+06
       111      550.0  2.42968E+04  4.73279E+06
       112      555.0  2.55806E+04  4.86070E+06
       113      560.0  2.42902E+04  4.98215E+06
       114      565.0  2.74552E+04  5.11942E+06
       115      570.0  2.59248E+04  5.24905E+06
       116      575.0  2.71346E+04  5.38472E+06
       117      580.0  2.70508E+04  5.51997E+06
       118      585.0  2.71708E+04  5.65583E+06
       119      590.0  2.82004E+04  5.79683E+06
       120      595.0  2.91342E+04  5.94250E+06
       121      600.0  2.86458E+04  6.08573E+06
       122      605.0  3.08398E+04  6.23993E+06
       123      610.0  2.82628E+04  6.38124E+06
       124      615.0  3.23420E+04  6.54295E+06
       125      620.0  3.03226E+04  6.69456E+06
       126      625.0  3.18702E+04  6.85392E+06
       127      630.0  3.19740E+04  7.01379E+06
       128      635.0  3.21420E+04  7.17450E+06
       129      640.0  3.42202E+04  7.34560E+06
       130      645.0  3.35886E+04  7.51354E+06
       131      650.0  3.55202E+04  7.69114E+06
       132      655.0  3.25202E+04  7.85374E+06
       133      660.0  3.58100E+04  8.03279E+06
       134      665.0  3.60632E+04  8.21311E+06
       135      670.0  3.74162E+04  8.40019E+06
       136      675.0  3.78884E+04  8.58963E+06
       137      680.0  3.72696E+04  8.77598E+06
       138      685.0  3.74858E+04  8.96341E+06
       139      690.0  3.82202E+04  9.15451E+06
       140      695.0  3.94456E+04  9.35174E+06
       141      700.0  4.10656E+04  9.55706E+06
       142      705.0  3.94668E+04  9.75440E+06
       143      710.0  4.27372E+04  9.96808E+06
       144      715.0  4.15820E+04  1.01760E+07
       145      720.0  4.15202E+04  1.03836E+07
       146      725.0  4.27678E+04  1.05974E+07
       147      730.0  4.29276E+04  1.08121E+07
       148      735.0  4.48212E+04  1.10362E+07
       149      740.0  4.46586E+04  1.12595E+07
       150      745.0  4.63928E+04  1.14914E+07
       151      750.0  4.48212E+04  1.17155E+07
       152      755.0  4.70176E+04  1.19506E+07
       153      760.0  4.72316E+04  1.21868E+07
       154      765.0  4.79542E+04  1.24266E+07
       155      770.0  4.83244E+04  1.26682E+07
       156      775.0  4.80550E+04  1.29085E+07
       157      780.0  5.11080E+04  1.31640E+07
       158      785.0  5.11038E+04  1.34195E+07
       159      790.0  5.05968E+04  1.36725E+07
       160      795.0  5.20470E+04  1.39327E+07
       161      800.0  5.01536E+04  1.41835E+07
       162      805.0  5.40478E+04  1.44537E+07
       163      810.0  5.42130E+04  1.47248E+07
       164      815.0  5.55412E+04  1.50025E+07
       165      820.0  5.68318E+04  1.52867E+07
       166      825.0  5.34714E+04  1.55540E+07
       167      830.0  5.77732E+04  1.58429E+07
       168      835.0  5.58256E+04  1.61220E+07
       169      840.0  5.72974E+04  1.64085E+07
       170      845.0  5.98770E+04  1.67079E+07
       171      850.0  5.94974E+04  1.70054E+07
       172      855.0  6.10570E+04  1.73107E+07
       173      860.0  6.16818E+04  1.76191E+07
       174      865.0  6.16466E+04  1.79273E+07
       175      870.0  6.24352E+04  1.82395E+07
       176      875.0  6.24302E+04  1.85516E+07
       177      880.0  6.31130E+04  1.88672E+07
       178      885.0  6.54228E+04  1.91943E+07
       179      890.0  6.68524E+04  1.95286E+07
       180      895.0  6.70500E+04  1.98638E+07
       181      900.0  6.90866E+04  2.02093E+07
       182      905.0  6.59022E+04  2.05388E+07
       183      910.0  6.88902E+04  2.08832E+07
       184      915.0  7.07506E+04  2.12370E+07
       185      920.0  6.91916E+04  2.15829E+07
       186      925.0  7.54332E+04  2.19601E+07
       187      930.0  7.16342E+04  2.23183E+07
       188      935.0  7.37476E+04  2.26870E+07
       189      940.0  7.50244E+04  2.30621E+07
       190      945.0  7.16930E+04  2.34206E+07
       191      950.0  7.78788E+04  2.38100E+07
       192      955.0  7.73908E+04  2.41969E+07
       193      960.0  7.94508E+04  2.45942E+07
       194      965.0  8.14004E+04  2.50012E+07
       195      970.0  7.66864E+04  2.53846E+07
       196      975.0  8.22820E+04  2.57960E+07
       197      980.0  8.06288E+04  2.61992E+07
       198      985.0  8.27176E+04  2.66128E+07
       199      990.0  8.61498E+04  2.70435E+07
       200      995.0  8.30268E+04  2.74587E+07
       201     1000.0  8.57960E+04  2.78876E+07
       202     1005.0  8.87548E+04  2.83314E+07
       203     1010.0  8.76046E+04  2.87694E+07
       204     1015.0  8.81714E+04  2.92103E+07
       205     1020.0  9.03762E+04  2.96622E+07
       206     1025.0  8.94758E+04  3.01095E+07
       207     1030.0  9.36962E+04  3.05780E+07
       208     1035.0  9.43302E+04  3.10497E+07
       209     1040.0  9.24124E+04  3.15117E+07
       210     1045.0  9.72096E+04  3.19978E+07
       211     1050.0  9.29054E+04  3.24623E+07
       212     1055.0  9.96168E+04  3.29604E+07
       213     1060.0  1.00817E+05  3.34645E+07
       214     1065.0  9.86910E+04  3.39579E+07
       215     1070.0  1.05092E+05  3.44834E+07
       216     1075.0  1.01468E+05  3.49907E+07
       217     1080.0  1.02797E+05  3.55047E+07
       218     1085.0  1.05215E+05  3.60308E+07
       219     1090.0  1.03551E+05  3.65486E+07
       220     1095.0  1.09105E+05  3.70941E+07
       221     1100.0  1.11019E+05  3.76492E+07
       222     1105.0  1.09249E+05  3.81954E+07
       223     1110.0  1.13986E+05  3.87654E+07
       224     1115.0  1.10296E+05  3.93168E+07
       225     1120.0  1.14725E+05  3.98905E+07
       226     1125.0  1.14937E+05  4.04651E+07
       227     1130.0  1.16553E+05  4.10479E+07
       228     1135.0  1.16922E+05  4.16325E+07
       229     1140.0  1.21537E+05  4.22402E+07
       230     1145.0  1.20750E+05  4.28440E+07
       231     1150.0  1.24165E+05  4.34648E+07
       232     1155.0  1.22947E+05  4.40795E+07
       233     1160.0  1.21396E+05  4.46865E+07
       234     1165.0  1.28047E+05  4.53267E+07
       235     1170.0  1.25818E+05  4.59558E+07
       236     1175.0  1.31618E+05  4.66139E+07
       237     1180.0  1.32909E+05  4.72785E+07
       238     1185.0  1.31505E+05  4.79360E+07
       239     1190.0  1.33805E+05  4.86050E+07
       240     1195.0  1.32459E+05  4.92673E+07
       241     1200.0  1.33579E+05  4.99352E+07
       242     1205.0  1.43389E+05  5.06521E+07
       243     1210.0  1.36797E+05  5.13361E+07
       244     1215.0  1.43924E+05  5.20557E+07
       245     1220.0  1.42352E+05  5.27675E+07
       246     1225.0  1.39971E+05  5.34674E+07
       247     1230.0  1.47934E+05  5.42070E+07
       248     1235.0  1.46760E+05  5.49408E+07
       249     1240.0  1.47117E+05  5.56764E+07
       250     1245.0  1.50822E+05  5.64305E+07
       251     1250.0  1.53313E+05  5.71971E+07
       252     1255.0  1.53348E+05  5.79638E+07
       253     1260.0  1.57219E+05  5.87499E+07
       254     1265.0  1.55279E+05  5.95263E+07
       255     1270.0  1.56921E+05  6.03109E+07
       256     1275.0  1.60240E+05  6.11121E+07
       257     1280.0  1.60763E+05  6.19159E+07
       258     1285.0  1.67605E+05  6.27540E+07
       259     1290.0  1.64463E+05  6.35763E+07
       260     1295.0  1.66788E+05  6.44102E+07
       261     1300.0  1.73781E+05  6.52791E+07
       262     1305.0  1.66594E+05  6.61121E+07
       263     1310.0  1.74361E+05  6.69839E+07
       264     1315.0  1.75506E+05  6.78614E+07
       265     1320.0  1.76949E+05  6.87462E+07
       266     1325.0  1.81226E+05  6.96523E+07
       267     1330.0  1.79956E+05  7.05521E+07
       268     1335.0  1.80852E+05  7.14563E+07
       269     1340.0  1.87414E+05  7.23934E+07
       270     1345.0  1.84751E+05  7.33172E+07
       271     1350.0  1.90679E+05  7.42706E+07
       272     1355.0  1.87566E+05  7.52084E+07
       273     1360.0  1.90432E+05  7.61605E+07
       274     1365.0  1.97214E+05  7.71466E+07
       275     1370.0  1.95611E+05  7.81247E+07
       276     1375.0  2.02694E+05  7.91381E+07
       277     1380.0  1.99653E+05  8.01364E+07
       278     1385.0  2.02147E+05  8.11471E+07
       279     1390.0  2.06093E+05  8.21776E+07
       280     1395.0  2.11465E+05  8.32349E+07
       281     1400.0  2.02797E+05  8.42489E+07
       282     1405.0  2.16121E+05  8.53295E+07
       283     1410.0  2.10078E+05  8.63799E+07
       284     1415.0  2.14042E+05  8.74501E+07
       285     1420.0  2.23059E+05  8.85654E+07
       286     1425.0  2.18301E+05  8.96569E+07
       287     1430.0  2.28252E+05  9.07982E+07
       288     1435.0  2.26269E+05  9.19295E+07
       289     1440.0  2.25743E+05  9.30582E+07
       290     1445.0  2.32501E+05  9.42207E+07
       291     1450.0  2.30438E+05  9.53729E+07
       292     1455.0  2.34198E+05  9.65439E+07
       293     1460.0  2.45008E+05  9.77690E+07
       294     1465.0  2.32584E+05  9.89319E+07
       295     1470.0  2.46533E+05  1.00165E+08
       296     1475.0  2.42017E+05  1.01375E+08
       297     1480.0  2.48319E+05  1.02616E+08
       298     1485.0  2.53991E+05  1.03886E+08
       299     1490.0  2.49726E+05  1.05135E+08
       300     1495.0  2.54686E+05  1.06408E+08
       301     1500.0  2.59465E+05  1.07706E+08
       302     1505.0  2.62375E+05  1.09017E+08
       303     1510.0  2.64481E+05  1.10340E+08
       304     1515.0  2.66064E+05  1.11670E+08
       305     1520.0  2.65706E+05  1.12999E+08
       306     1525.0  2.76195E+05  1.14380E+08
       307     1530.0  2.72913E+05  1.15744E+08
       308     1535.0  2.77135E+05  1.17130E+08
       309     1540.0  2.83106E+05  1.18545E+08
       310     1545.0  2.79193E+05  1.19941E+08
       311     1550.0  2.87952E+05  1.21381E+08
       312     1555.0  2.86142E+05  1.22812E+08
       313     1560.0  2.86915E+05  1.24246E+08
       314     1565.0  3.03576E+05  1.25764E+08
       315     1570.0  2.90856E+05  1.27219E+08
       316     1575.0  3.09097E+05  1.28764E+08
       317     1580.0  3.02205E+05  1.30275E+08
       318     1585.0  3.00911E+05  1.31780E+08
       319     1590.0  3.13710E+05  1.33348E+08
       320     1595.0  3.11756E+05  1.34907E+08
       321     1600.0  3.13987E+05  1.36477E+08
       322     1605.0  3.19654E+05  1.38075E+08
       323     1610.0  3.13586E+05  1.39643E+08
       324     1615.0  3.28775E+05  1.41287E+08
       325     1620.0  3.31428E+05  1.42944E+08
       326     1625.0  3.28782E+05  1.44588E+08
       327     1630.0  3.34992E+05  1.46263E+08
       328     1635.0  3.36645E+05  1.47946E+08
       329     1640.0  3.40318E+05  1.49648E+08
       330     1645.0  3.45190E+05  1.51374E+08
       331     1650.0  3.45675E+05  1.53102E+08
       332     1655.0  3.47463E+05  1.54839E+08
       333     1660.0  3.55703E+05  1.56618E+08
       334     1665.0  3.53234E+05  1.58384E+08
       335     1670.0  3.68438E+05  1.60226E+08
       336     1675.0  3.60134E+05  1.62027E+08
       337     1680.0  3.68475E+05  1.63869E+08
       338     1685.0  3.75591E+05  1.65747E+08
       339     1690.0  3.71161E+05  1.67603E+08
       340     1695.0  3.75078E+05  1.69479E+08
       341     1700.0  3.81850E+05  1.71388E+08
       342     1705.0  3.80860E+05  1.73292E+08
       343     1710.0  3.96483E+05  1.75275E+08
       344     1715.0  3.86806E+05  1.77209E+08
       345     1720.0  3.93850E+05  1.79178E+08
       346     1725.0  4.00804E+05  1.81182E+08
       347     1730.0  4.00913E+05  1.83186E+08
       348     1735.0  4.11889E+05  1.85246E+08
       349     1740.0  4.11525E+05  1.87303E+08
       350     1745.0  4.15248E+05  1.89380E+08
       351     1750.0  4.17872E+05  1.91469E+08
       352     1755.0  4.23155E+05  1.93585E+08
       353     1760.0  4.21027E+05  1.95690E+08
       354     1765.0  4.33663E+05  1.97858E+08
       355     1770.0  4.29527E+05  2.00006E+08
       356     1775.0  4.36470E+05  2.02188E+08
       357     1780.0  4.49246E+05  2.04434E+08
       358     1785.0  4.36714E+05  2.06618E+08
       359     1790.0  4.59667E+05  2.08916E+08
       360     1795.0  4.52052E+05  2.11177E+08
       361     1800.0  4.53230E+05  2.13443E+08
       362     1805.0  4.66461E+05  2.15775E+08
