%%%%%%%%%%%%%%%%%%%%%%%%%%%%%%%%%%%%%%%%%%%%%%%%%%%%%%%%%%%%%%%%%%%%%%%%%%%%%%

                                        John R. Barker
              MultiWell-2023            University of Michigan
                                        Ann Arbor, MI 48109-2143
                Mar 2023                jrbarker@umich.edu
                                        (734) 763 6239

              http://clasp-research.engin.umich.edu/multiwell/

%%%%%%%%%%%%%%%%%%%%%%%%%%%%%%%%%%%%%%%%%%%%%%%%%%%%%%%%%%%%%%%%%%%%%%%%%%%%%%

        Suggested Literature Citations:

    a) J.R. Barker, T.L. Nguyen, J.F. Stanton, C. Aieta, M. Ceotto,
       F. Gabas, T.J.D. Kumar, C.G.L.Li, L.L.Lohr, A. Maranzana,
       N.F. Ortiz, J.M. Preses, J.M. Simmie, J.A. Sonk, and P.J. Stimac; 
       MultiWell-2023    Software Suite; University of Michigan, 
       Ann Arbor, Michigan, USA, Mar 2023; 
       http://clasp-research.engin.umich.edu/multiwell/.

    b) J.R. Barker, Int. J. Chem. Kinetics, 33, 232-45 (2001)

    c) J.R. Barker, Int. J. Chem. Kinetics, 41, 748-763 (2009)

%%%%%%%%%%%%%%%%%%%%%%%%%%%%%%%%%%%%%%%%%%%%%%%%%%%%%%%%%%%%%%%%%%%%%%%%%%%%%%


....................................................
          2023/03/24   07:09:56.097   (Local Time)
          year/mm/dd   hr:mi:second
                 CPU :        0.026 s (  0.000 hr)
....................................................
C2F3H3- TFE tunneling example                                                                       

PARAMETERS FOR DOUBLE-ARRAYS:
        Grain (cm-1)      Maximum Energy    Number of grains
              10.000            4990.000                 500
             200.401          100000.000                 500


TEMPERATURES:
        Translational Temperature =  2000.0 K
  Initial Vibrational Temperature =   300.0 K


  1 WELLS and  1 PRODUCTS

  Molec_No.:          1          2
 Molec_Name: C2H3F3____ C2H2F2+HF_
 delH(cm-1):        0.0    11122.2
   delH(kJ):        0.0      133.1
 delH(kcal):        0.0       31.8
 lowest_vib:      249.0
  2D-moment:       95.6
   ext_symm:          3
Qel_partfxn:       1.00
   opt_isom:          1
 Thermal<E>:    15889.4

Units: 2D-moment : amu Ang^2       Thermal<E>: cm-1 (at Translational T)

     Densities of States
     Energy  C2H3F3____
        0.0  1.100E+00
       10.0  6.000E-01
       20.0  6.000E-01
       30.0  4.000E-01
       40.0  4.000E-01
       50.0  4.000E-01
       60.0  2.000E-01
       70.0  2.000E-01
       80.0  4.000E-01
       90.0  2.000E-01
      100.0  2.000E-01
      110.0  2.000E-01
      120.0  2.000E-01
      130.0  2.000E-01
      140.0  2.000E-01
      150.0  2.000E-01
      160.0  2.000E-01
      170.0  2.000E-01
      180.0  2.000E-01
      190.0  2.000E-01
      200.0  2.000E-01
      210.0  3.975E-31
      220.0  2.000E-01
      230.0  1.300E+00
      240.0  8.000E-01
      250.0  6.000E-01
      260.0  6.000E-01
      270.0  6.000E-01
      280.0  4.000E-01
      290.0  4.000E-01
      300.0  4.000E-01
      310.0  4.000E-01
      320.0  4.000E-01
      330.0  4.000E-01
      340.0  2.000E-01
      350.0  4.000E-01
      360.0  4.000E-01
      370.0  2.000E-01
      380.0  4.000E-01
      390.0  2.400E+00
      400.0  1.600E+00
      410.0  1.400E+00
      420.0  1.200E+00
      430.0  1.200E+00
      440.0  8.000E-01
      450.0  1.900E+00
      460.0  1.200E+00
      470.0  1.800E+00
      480.0  8.000E-01
      490.0  1.200E+00
      500.0  1.000E+00
      510.0  8.000E-01
      520.0  8.000E-01
      530.0  1.200E+00
      540.0  6.000E-01
      550.0  1.000E+00
      560.0  8.000E-01
      570.0  8.000E-01
      580.0  3.000E+00
      590.0  2.200E+00
      600.0  1.400E+00
      610.0  1.800E+00
      620.0  3.600E+00
      630.0  3.000E+00
      640.0  1.800E+00
      650.0  4.200E+00
      660.0  3.600E+00
      670.0  2.600E+00
      680.0  2.600E+00
      690.0  2.200E+00
      700.0  2.400E+00
      710.0  1.800E+00
      720.0  2.200E+00
      730.0  1.600E+00
      740.0  2.000E+00
      750.0  2.000E+00
      760.0  1.400E+00
      770.0  2.000E+00
      780.0  4.900E+00
      790.0  3.000E+00
      800.0  3.600E+00
      810.0  5.200E+00
      820.0  4.400E+00
      830.0  4.100E+00
      840.0  6.200E+00
      850.0  4.600E+00
      860.0  4.600E+00
      870.0  3.400E+00
      880.0  5.100E+00
      890.0  4.000E+00
      900.0  3.400E+00
      910.0  4.700E+00
      920.0  4.600E+00
      930.0  3.200E+00
      940.0  4.000E+00
      950.0  3.400E+00
      960.0  3.400E+00
      970.0  7.933E+00
      980.0  7.000E+00
      990.0  4.400E+00
     1000.0  6.433E+00
     1010.0  8.167E+00
     1020.0  6.467E+00
     1030.0  7.667E+00
     1040.0  1.027E+01
     1050.0  1.020E+01
     1060.0  7.167E+00
     1070.0  8.000E+00
     1080.0  6.667E+00
     1090.0  8.333E+00
     1100.0  7.833E+00
     1110.0  8.333E+00
     1120.0  6.067E+00
     1130.0  7.800E+00
     1140.0  8.433E+00
     1150.0  6.467E+00
     1160.0  7.833E+00
     1170.0  1.413E+01
     1180.0  9.400E+00
     1190.0  1.020E+01
     1200.0  1.320E+01
     1210.0  1.207E+01
     1220.0  1.067E+01
     1230.0  1.850E+01
     1240.0  1.473E+01
     1250.0  1.300E+01
     1260.0  1.220E+01
     1270.0  1.360E+01
     1280.0  1.207E+01
     1290.0  1.097E+01
     1300.0  1.443E+01
     1310.0  1.307E+01
     1320.0  1.327E+01
     1330.0  1.353E+01
     1340.0  1.073E+01
     1350.0  1.153E+01
     1360.0  1.917E+01
     1370.0  1.753E+01
     1380.0  1.287E+01
     1390.0  1.703E+01
     1400.0  2.167E+01
     1410.0  2.020E+01
     1420.0  2.273E+01
     1430.0  2.530E+01
     1440.0  2.367E+01
     1450.0  1.960E+01
     1460.0  2.280E+01
     1470.0  1.847E+01
     1480.0  2.197E+01
     1490.0  2.467E+01
     1500.0  2.267E+01
     1510.0  1.840E+01
     1520.0  2.297E+01
     1530.0  2.280E+01
     1540.0  2.100E+01
     1550.0  2.280E+01
     1560.0  3.597E+01
     1570.0  2.433E+01
     1580.0  2.707E+01
     1590.0  3.080E+01
     1600.0  2.883E+01
     1610.0  2.647E+01
     1620.0  4.167E+01
     1630.0  3.800E+01
     1640.0  3.467E+01
     1650.0  3.397E+01
     1660.0  3.420E+01
     1670.0  3.520E+01
     1680.0  3.480E+01
     1690.0  3.650E+01
     1700.0  3.460E+01
     1710.0  3.623E+01
     1720.0  3.893E+01
     1730.0  3.020E+01
     1740.0  3.727E+01
     1750.0  5.073E+01
     1760.0  4.513E+01
     1770.0  3.533E+01
     1780.0  4.317E+01
     1790.0  5.100E+01
     1800.0  4.660E+01
     1810.0  5.457E+01
     1820.0  6.067E+01
     1830.0  5.543E+01
     1840.0  5.017E+01
     1850.0  5.260E+01
     1860.0  5.073E+01
     1870.0  5.427E+01
     1880.0  6.120E+01
     1890.0  5.633E+01
     1900.0  5.327E+01
     1910.0  5.883E+01
     1920.0  5.663E+01
     1930.0  5.353E+01
     1940.0  6.077E+01
     1950.0  7.493E+01
     1960.0  5.880E+01
     1970.0  6.443E+01
     1980.0  7.353E+01
     1990.0  6.943E+01
     2000.0  7.020E+01
     2010.0  9.213E+01
     2020.0  8.447E+01
     2030.0  7.847E+01
     2040.0  8.247E+01
     2050.0  7.963E+01
     2060.0  8.787E+01
     2070.0  8.813E+01
     2080.0  8.897E+01
     2090.0  8.667E+01
     2100.0  8.807E+01
     2110.0  9.093E+01
     2120.0  7.950E+01
     2130.0  8.927E+01
     2140.0  1.158E+02
     2150.0  1.011E+02
     2160.0  8.657E+01
     2170.0  9.960E+01
     2180.0  1.071E+02
     2190.0  1.040E+02
     2200.0  1.208E+02
     2210.0  1.334E+02
     2220.0  1.258E+02
     2230.0  1.205E+02
     2240.0  1.226E+02
     2250.0  1.209E+02
     2260.0  1.313E+02
     2270.0  1.366E+02
     2280.0  1.331E+02
     2290.0  1.285E+02
     2300.0  1.373E+02
     2310.0  1.296E+02
     2320.0  1.389E+02
     2330.0  1.471E+02
     2340.0  1.609E+02
     2350.0  1.366E+02
     2360.0  1.445E+02
     2370.0  1.593E+02
     2380.0  1.502E+02
     2390.0  1.610E+02
     2400.0  1.908E+02
     2410.0  1.850E+02
     2420.0  1.723E+02
     2430.0  1.811E+02
     2440.0  1.807E+02
     2450.0  1.898E+02
     2460.0  2.023E+02
     2470.0  1.975E+02
     2480.0  1.915E+02
     2490.0  2.003E+02
     2500.0  2.011E+02
     2510.0  1.880E+02
     2520.0  2.032E+02
     2530.0  2.329E+02
     2540.0  2.209E+02
     2550.0  2.025E+02
     2560.0  2.152E+02
     2570.0  2.275E+02
     2580.0  2.356E+02
     2590.0  2.580E+02
     2600.0  2.666E+02
     2610.0  2.644E+02
     2620.0  2.595E+02
     2630.0  2.616E+02
     2640.0  2.676E+02
     2650.0  2.885E+02
     2660.0  2.981E+02
     2670.0  2.853E+02
     2680.0  2.776E+02
     2690.0  2.960E+02
     2700.0  2.770E+02
     2710.0  2.998E+02
     2720.0  3.180E+02
     2730.0  3.375E+02
     2740.0  3.006E+02
     2750.0  3.066E+02
     2760.0  3.249E+02
     2770.0  3.260E+02
     2780.0  3.369E+02
     2790.0  3.819E+02
     2800.0  3.823E+02
     2810.0  3.717E+02
     2820.0  3.763E+02
     2830.0  3.816E+02
     2840.0  4.085E+02
     2850.0  4.247E+02
     2860.0  4.106E+02
     2870.0  4.071E+02
     2880.0  4.191E+02
     2890.0  4.204E+02
     2900.0  4.077E+02
     2910.0  4.388E+02
     2920.0  4.707E+02
     2930.0  4.581E+02
     2940.0  4.287E+02
     2950.0  4.494E+02
     2960.0  4.655E+02
     2970.0  4.945E+02
     2980.0  5.108E+02
     2990.0  5.371E+02
     3000.0  5.333E+02
     3010.0  5.315E+02
     3020.0  5.237E+02
     3030.0  5.538E+02
     3040.0  5.898E+02
     3050.0  5.976E+02
     3060.0  5.792E+02
     3070.0  5.791E+02
     3080.0  5.982E+02
     3090.0  5.787E+02
     3100.0  6.092E+02
     3110.0  6.426E+02
     3120.0  6.638E+02
     3130.0  6.264E+02
     3140.0  6.210E+02
     3150.0  6.638E+02
     3160.0  6.740E+02
     3170.0  6.945E+02
     3180.0  7.351E+02
     3190.0  7.592E+02
     3200.0  7.400E+02
     3210.0  7.396E+02
     3220.0  7.601E+02
     3230.0  8.256E+02
     3240.0  8.379E+02
     3250.0  8.101E+02
     3260.0  8.162E+02
     3270.0  8.300E+02
     3280.0  8.311E+02
     3290.0  8.303E+02
     3300.0  8.821E+02
     3310.0  9.275E+02
     3320.0  9.076E+02
     3330.0  8.718E+02
     3340.0  8.964E+02
     3350.0  9.253E+02
     3360.0  9.639E+02
     3370.0  9.995E+02
     3380.0  1.044E+03
     3390.0  1.047E+03
     3400.0  1.028E+03
     3410.0  1.037E+03
     3420.0  1.100E+03
     3430.0  1.143E+03
     3440.0  1.139E+03
     3450.0  1.139E+03
     3460.0  1.135E+03
     3470.0  1.155E+03
     3480.0  1.147E+03
     3490.0  1.212E+03
     3500.0  1.256E+03
     3510.0  1.269E+03
     3520.0  1.243E+03
     3530.0  1.219E+03
     3540.0  1.277E+03
     3550.0  1.325E+03
     3560.0  1.347E+03
     3570.0  1.389E+03
     3580.0  1.440E+03
     3590.0  1.410E+03
     3600.0  1.412E+03
     3610.0  1.468E+03
     3620.0  1.551E+03
     3630.0  1.588E+03
     3640.0  1.561E+03
     3650.0  1.559E+03
     3660.0  1.582E+03
     3670.0  1.598E+03
     3680.0  1.615E+03
     3690.0  1.680E+03
     3700.0  1.738E+03
     3710.0  1.741E+03
     3720.0  1.692E+03
     3730.0  1.726E+03
     3740.0  1.776E+03
     3750.0  1.861E+03
     3760.0  1.869E+03
     3770.0  1.935E+03
     3780.0  1.968E+03
     3790.0  1.911E+03
     3800.0  1.956E+03
     3810.0  2.064E+03
     3820.0  2.139E+03
     3830.0  2.129E+03
     3840.0  2.144E+03
     3850.0  2.123E+03
     3860.0  2.178E+03
     3870.0  2.182E+03
     3880.0  2.283E+03
     3890.0  2.339E+03
     3900.0  2.384E+03
     3910.0  2.351E+03
     3920.0  2.307E+03
     3930.0  2.395E+03
     3940.0  2.485E+03
     3950.0  2.525E+03
     3960.0  2.565E+03
     3970.0  2.651E+03
     3980.0  2.622E+03
     3990.0  2.614E+03
     4000.0  2.733E+03
     4010.0  2.834E+03
     4020.0  2.908E+03
     4030.0  2.880E+03
     4040.0  2.877E+03
     4050.0  2.911E+03
     4060.0  2.986E+03
     4070.0  3.019E+03
     4080.0  3.109E+03
     4090.0  3.182E+03
     4100.0  3.229E+03
     4110.0  3.119E+03
     4120.0  3.180E+03
     4130.0  3.298E+03
     4140.0  3.424E+03
     4150.0  3.400E+03
     4160.0  3.506E+03
     4170.0  3.568E+03
     4180.0  3.496E+03
     4190.0  3.550E+03
     4200.0  3.746E+03
     4210.0  3.863E+03
     4220.0  3.870E+03
     4230.0  3.874E+03
     4240.0  3.884E+03
     4250.0  3.981E+03
     4260.0  4.019E+03
     4270.0  4.110E+03
     4280.0  4.247E+03
     4290.0  4.317E+03
     4300.0  4.277E+03
     4310.0  4.194E+03
     4320.0  4.383E+03
     4330.0  4.522E+03
     4340.0  4.544E+03
     4350.0  4.593E+03
     4360.0  4.757E+03
     4370.0  4.696E+03
     4380.0  4.706E+03
     4390.0  4.891E+03
     4400.0  5.098E+03
     4410.0  5.158E+03
     4420.0  5.167E+03
     4430.0  5.164E+03
     4440.0  5.221E+03
     4450.0  5.356E+03
     4460.0  5.437E+03
     4470.0  5.570E+03
     4480.0  5.704E+03
     4490.0  5.732E+03
     4500.0  5.612E+03
     4510.0  5.724E+03
     4520.0  5.908E+03
     4530.0  6.053E+03
     4540.0  6.062E+03
     4550.0  6.212E+03
     4560.0  6.312E+03
     4570.0  6.215E+03
     4580.0  6.351E+03
     4590.0  6.611E+03
     4600.0  6.801E+03
     4610.0  6.811E+03
     4620.0  6.848E+03
     4630.0  6.870E+03
     4640.0  7.045E+03
     4650.0  7.153E+03
     4660.0  7.262E+03
     4670.0  7.475E+03
     4680.0  7.564E+03
     4690.0  7.531E+03
     4700.0  7.437E+03
     4710.0  7.726E+03
     4720.0  7.945E+03
     4730.0  7.991E+03
     4740.0  8.058E+03
     4750.0  8.292E+03
     4760.0  8.214E+03
     4770.0  8.268E+03
     4780.0  8.572E+03
     4790.0  8.839E+03
     4800.0  8.983E+03
     4810.0  9.020E+03
     4820.0  9.017E+03
     4830.0  9.137E+03
     4840.0  9.366E+03
     4850.0  9.472E+03
     4860.0  9.678E+03
     4870.0  9.895E+03
     4880.0  9.921E+03
     4890.0  9.817E+03
     4900.0  1.001E+04
     4910.0  1.029E+04
     4920.0  1.049E+04
     4930.0  1.055E+04
     4940.0  1.070E+04
     4950.0  1.089E+04
     4960.0  1.079E+04
     4970.0  1.105E+04
     4980.0  1.138E+04
     4990.0  1.168E+04
        0.0  1.100E+00
      200.4  2.000E-01
      400.8  1.600E+00
      601.2  1.400E+00
      801.6  3.600E+00
     1002.0  6.433E+00
     1202.4  1.320E+01
     1402.8  2.167E+01
     1603.2  2.883E+01
     1803.6  4.660E+01
     2004.0  7.020E+01
     2204.4  1.208E+02
     2404.8  1.908E+02
     2605.2  2.666E+02
     2805.6  3.823E+02
     3006.0  5.333E+02
     3206.4  7.400E+02
     3406.8  1.028E+03
     3607.2  1.412E+03
     3807.6  1.956E+03
     4008.0  2.733E+03
     4208.4  3.746E+03
     4408.8  5.098E+03
     4609.2  6.801E+03
     4809.6  8.983E+03
     5010.0  1.180E+04
     5210.4  1.532E+04
     5410.8  1.998E+04
     5611.2  2.598E+04
     5811.6  3.372E+04
     6012.0  4.334E+04
     6212.4  5.544E+04
     6412.8  7.034E+04
     6613.2  8.899E+04
     6813.6  1.122E+05
     7014.0  1.412E+05
     7214.4  1.766E+05
     7414.8  2.201E+05
     7615.2  2.734E+05
     7815.6  3.379E+05
     8016.0  4.161E+05
     8216.4  5.115E+05
     8416.8  6.277E+05
     8617.2  7.685E+05
     8817.6  9.393E+05
     9018.0  1.144E+06
     9218.4  1.389E+06
     9418.8  1.679E+06
     9619.2  2.023E+06
     9819.6  2.433E+06
    10020.0  2.945E+06
    10220.4  3.534E+06
    10420.8  4.228E+06
    10621.2  5.045E+06
    10821.6  6.005E+06
    11022.0  7.131E+06
    11222.4  8.451E+06
    11422.8  9.998E+06
    11623.2  1.181E+07
    11823.6  1.393E+07
    12024.0  1.639E+07
    12224.4  1.926E+07
    12424.8  2.258E+07
    12625.3  2.643E+07
    12825.7  3.088E+07
    13026.1  3.603E+07
    13226.5  4.199E+07
    13426.9  4.885E+07
    13627.3  5.676E+07
    13827.7  6.586E+07
    14028.1  7.628E+07
    14228.5  8.821E+07
    14428.9  1.019E+08
    14629.3  1.175E+08
    14829.7  1.353E+08
    15030.1  1.568E+08
    15230.5  1.802E+08
    15430.9  2.068E+08
    15631.3  2.370E+08
    15831.7  2.713E+08
    16032.1  3.101E+08
    16232.5  3.542E+08
    16432.9  4.041E+08
    16633.3  4.605E+08
    16833.7  5.242E+08
    17034.1  5.961E+08
    17234.5  6.771E+08
    17434.9  7.683E+08
    17635.3  8.709E+08
    17835.7  9.862E+08
    18036.1  1.116E+09
    18236.5  1.261E+09
    18436.9  1.424E+09
    18637.3  1.607E+09
    18837.7  1.811E+09
    19038.1  2.039E+09
    19238.5  2.294E+09
    19438.9  2.579E+09
    19639.3  2.897E+09
    19839.7  3.251E+09
    20040.1  3.666E+09
    20240.5  4.107E+09
    20440.9  4.597E+09
    20641.3  5.142E+09
    20841.7  5.747E+09
    21042.1  6.418E+09
    21242.5  7.162E+09
    21442.9  7.987E+09
    21643.3  8.899E+09
    21843.7  9.909E+09
    22044.1  1.103E+10
    22244.5  1.226E+10
    22444.9  1.362E+10
    22645.3  1.512E+10
    22845.7  1.678E+10
    23046.1  1.861E+10
    23246.5  2.062E+10
    23446.9  2.283E+10
    23647.3  2.527E+10
    23847.7  2.795E+10
    24048.1  3.089E+10
    24248.5  3.412E+10
    24448.9  3.766E+10
    24649.3  4.155E+10
    24849.7  4.582E+10
    25050.1  5.073E+10
    25250.5  5.587E+10
    25450.9  6.149E+10
    25651.3  6.765E+10
    25851.7  7.437E+10
    26052.1  8.172E+10
    26252.5  8.975E+10
    26452.9  9.851E+10
    26653.3  1.081E+11
    26853.7  1.185E+11
    27054.1  1.299E+11
    27254.5  1.422E+11
    27454.9  1.557E+11
    27655.3  1.704E+11
    27855.7  1.863E+11
    28056.1  2.037E+11
    28256.5  2.226E+11
    28456.9  2.431E+11
    28657.3  2.653E+11
    28857.7  2.895E+11
    29058.1  3.157E+11
    29258.5  3.441E+11
    29458.9  3.750E+11
    29659.3  4.084E+11
    29859.7  4.446E+11
    30060.1  4.858E+11
    30260.5  5.283E+11
    30460.9  5.744E+11
    30661.3  6.242E+11
    30861.7  6.780E+11
    31062.1  7.362E+11
    31262.5  7.990E+11
    31462.9  8.668E+11
    31663.3  9.401E+11
    31863.7  1.019E+12
    32064.1  1.104E+12
    32264.5  1.196E+12
    32464.9  1.295E+12
    32665.3  1.402E+12
    32865.7  1.517E+12
    33066.1  1.640E+12
    33266.5  1.773E+12
    33466.9  1.916E+12
    33667.3  2.070E+12
    33867.7  2.236E+12
    34068.1  2.414E+12
    34268.5  2.605E+12
    34468.9  2.810E+12
    34669.3  3.031E+12
    34869.7  3.267E+12
    35070.1  3.534E+12
    35270.5  3.807E+12
    35470.9  4.100E+12
    35671.3  4.414E+12
    35871.7  4.751E+12
    36072.1  5.111E+12
    36272.5  5.497E+12
    36472.9  5.911E+12
    36673.3  6.353E+12
    36873.7  6.827E+12
    37074.1  7.333E+12
    37274.5  7.875E+12
    37474.9  8.453E+12
    37675.4  9.072E+12
    37875.8  9.733E+12
    38076.2  1.044E+13
    38276.6  1.119E+13
    38477.0  1.200E+13
    38677.4  1.286E+13
    38877.8  1.377E+13
    39078.2  1.475E+13
    39278.6  1.580E+13
    39479.0  1.691E+13
    39679.4  1.809E+13
    39879.8  1.936E+13
    40080.2  2.077E+13
    40280.6  2.221E+13
    40481.0  2.374E+13
    40681.4  2.537E+13
    40881.8  2.710E+13
    41082.2  2.895E+13
    41282.6  3.091E+13
    41483.0  3.300E+13
    41683.4  3.521E+13
    41883.8  3.757E+13
    42084.2  4.008E+13
    42284.6  4.274E+13
    42485.0  4.557E+13
    42685.4  4.857E+13
    42885.8  5.176E+13
    43086.2  5.515E+13
    43286.6  5.874E+13
    43487.0  6.255E+13
    43687.4  6.659E+13
    43887.8  7.088E+13
    44088.2  7.542E+13
    44288.6  8.024E+13
    44489.0  8.535E+13
    44689.4  9.076E+13
    44889.8  9.649E+13
    45090.2  1.029E+14
    45290.6  1.093E+14
    45491.0  1.161E+14
    45691.4  1.234E+14
    45891.8  1.310E+14
    46092.2  1.391E+14
    46292.6  1.477E+14
    46493.0  1.567E+14
    46693.4  1.663E+14
    46893.8  1.764E+14
    47094.2  1.871E+14
    47294.6  1.984E+14
    47495.0  2.103E+14
    47695.4  2.229E+14
    47895.8  2.363E+14
    48096.2  2.503E+14
    48296.6  2.652E+14
    48497.0  2.809E+14
    48697.4  2.974E+14
    48897.8  3.149E+14
    49098.2  3.333E+14
    49298.6  3.527E+14
    49499.0  3.732E+14
    49699.4  3.948E+14
    49899.8  4.176E+14
    50100.2  4.428E+14
    50300.6  4.682E+14
    50501.0  4.949E+14
    50701.4  5.231E+14
    50901.8  5.527E+14
    51102.2  5.840E+14
    51302.6  6.168E+14
    51503.0  6.515E+14
    51703.4  6.879E+14
    51903.8  7.263E+14
    52104.2  7.666E+14
    52304.6  8.091E+14
    52505.0  8.537E+14
    52705.4  9.007E+14
    52905.8  9.501E+14
    53106.2  1.002E+15
    53306.6  1.057E+15
    53507.0  1.114E+15
    53707.4  1.174E+15
    53907.8  1.238E+15
